##NAMES=Actinolite
##RRUFFID=R040063
##IDEAL CHEMISTRY=Ca_2_(Mg_4.5-2.5_Fe^2+^_0.5-2.5_)_&#931;=5_Si_8_O_22_(OH)_2_
##LOCALITY=Harford County, Maryland, USA
##OWNER=RRUFF
##SOURCE=University of Arizona Mineral Museum
##DESCRIPTION=Mass of green acicular to bladed crystals associated with chlorite
##STATUS=The identification of this mineral has been confirmed by X-ray diffraction and chemical analysis
##URL=rruff.info/R040063
163.9207, 9383.799
165.8491, 9646.589
167.7776, 9927.591
169.7061, 10223.32
171.6345, 10491.60
173.5630, 10781.35
175.4915, 10940.15
177.4199, 10894.43
179.3484, 10785.88
181.2769, 10651.47
183.2053, 10524.13
185.1338, 10472.39
187.0623, 10517.55
188.9907, 10564.60
190.9192, 10618.83
192.8477, 10665.51
194.7761, 10681.12
196.7046, 10704.04
198.6331, 10766.87
200.5615, 10867.39
202.4900, 10979.75
204.4185, 11097.25
206.3469, 11241.13
208.2754, 11382.95
210.2039, 11596.14
212.1323, 11933.92
214.0608, 12357.27
215.9893, 12840.45
217.9177, 13408.19
219.8462, 13849.69
221.7747, 14150.15
223.7031, 14373.59
225.6316, 14579.72
227.5601, 14656.51
229.4885, 14521.56
231.4170, 14209.01
233.3455, 13802.05
235.2739, 13227.97
237.2024, 12800.90
239.1309, 12545.23
241.0593, 12398.54
242.9878, 12408.35
244.9163, 12458.16
246.8447, 12462.10
248.7732, 12422.12
250.7017, 12347.40
252.6301, 12224.95
254.5586, 12111.54
256.4871, 12002.14
258.4156, 11919.86
260.3440, 11905.67
262.2725, 11901.92
264.2010, 11835.63
266.1294, 11712.04
268.0579, 11643.87
269.9864, 11642.28
271.9148, 11644.74
273.8433, 11640.16
275.7718, 11640.67
277.7002, 11645.97
279.6287, 11663.60
281.5572, 11713.87
283.4856, 11794.89
285.4141, 11834.57
287.3426, 11819.58
289.2710, 11822.62
291.1995, 11860.65
293.1280, 11912.77
295.0564, 11979.63
296.9849, 12046.21
298.9134, 12094.79
300.8418, 12126.00
302.7703, 12150.24
304.6988, 12165.11
306.6272, 12188.38
308.5557, 12241.85
310.4842, 12270.41
312.4126, 12228.00
314.3411, 12166.60
316.2696, 12131.00
318.1980, 12119.71
320.1265, 12125.69
322.0550, 12148.35
323.9834, 12182.80
325.9119, 12233.25
327.8404, 12283.95
329.7688, 12328.55
331.6973, 12370.60
333.6258, 12410.52
335.5542, 12450.84
337.4827, 12495.82
339.4112, 12545.17
341.3396, 12621.80
343.2681, 12740.40
345.1966, 12848.72
347.1250, 12932.75
349.0535, 12996.57
350.9820, 13034.37
352.9104, 13056.84
354.8389, 13064.49
356.7674, 13061.07
358.6958, 13133.79
360.6243, 13291.01
362.5528, 13478.92
364.4812, 13743.10
366.4097, 13932.42
368.3382, 13979.36
370.2666, 13937.43
372.1951, 13813.55
374.1236, 13640.38
376.0520, 13521.45
377.9805, 13454.52
379.9090, 13449.65
381.8374, 13501.20
383.7659, 13640.01
385.6944, 13964.43
387.6228, 14268.66
389.5513, 14507.25
391.4798, 14636.85
393.4082, 14564.04
395.3367, 14317.22
397.2652, 14068.86
399.1936, 13812.35
401.1221, 13634.46
403.0506, 13545.82
404.9790, 13542.70
406.9075, 13676.16
408.8360, 13835.78
410.7644, 14016.01
412.6929, 14155.38
414.6214, 14143.63
416.5498, 13993.13
418.4783, 13815.22
420.4068, 13603.28
422.3352, 13433.62
424.2637, 13317.80
426.1922, 13248.22
428.1206, 13230.89
430.0491, 13246.71
431.9776, 13320.91
433.9060, 13401.00
435.8345, 13408.26
437.7630, 13348.10
439.6914, 13249.83
441.6199, 13109.48
443.5484, 13006.34
445.4768, 12956.51
447.4053, 12934.62
449.3338, 12946.79
451.2622, 12965.75
453.1907, 12987.73
455.1192, 13001.18
457.0477, 12979.65
458.9761, 12938.72
460.9046, 12937.18
462.8331, 12973.95
464.7615, 13004.32
466.6900, 13025.62
468.6185, 13036.66
470.5469, 13037.23
472.4754, 13027.68
474.4039, 12995.78
476.3323, 12964.51
478.2608, 12946.63
480.1893, 12944.02
482.1177, 12967.39
484.0462, 13010.82
485.9747, 13056.41
487.9031, 13106.60
489.8316, 13124.01
491.7601, 13078.06
493.6885, 13053.78
495.6170, 13079.20
497.5455, 13121.45
499.4739, 13167.11
501.4024, 13220.07
503.3309, 13283.51
505.2593, 13357.11
507.1878, 13443.53
509.1163, 13539.57
511.0447, 13627.45
512.9732, 13706.59
514.9017, 13769.78
516.8301, 13813.81
518.7586, 13845.43
520.6871, 13849.98
522.6155, 13865.34
524.5440, 13938.95
526.4725, 14009.19
528.4009, 14015.14
530.3294, 13965.96
532.2579, 13865.24
534.1863, 13726.28
536.1148, 13640.55
538.0433, 13623.09
539.9717, 13585.62
541.9002, 13496.26
543.8287, 13423.40
545.7571, 13383.00
547.6856, 13355.33
549.6141, 13332.25
551.5425, 13319.69
553.4710, 13334.01
555.3995, 13355.47
557.3279, 13346.45
559.2564, 13320.16
561.1849, 13323.40
563.1133, 13357.87
565.0418, 13365.91
566.9703, 13332.93
568.8987, 13301.98
570.8272, 13277.08
572.7557, 13257.57
574.6841, 13251.53
576.6126, 13241.02
578.5411, 13212.08
580.4695, 13178.65
582.3980, 13148.86
584.3265, 13125.92
586.2549, 13124.97
588.1834, 13134.07
590.1119, 13096.84
592.0403, 13006.42
593.9688, 12972.10
595.8973, 13034.08
597.8257, 13067.73
599.7542, 13050.09
601.6827, 13026.33
603.6111, 12990.80
605.5396, 12971.53
607.4681, 12999.23
609.3965, 13029.73
611.3250, 13016.52
613.2535, 12992.07
615.1819, 12999.25
617.1104, 13026.49
619.0389, 13042.87
620.9673, 13048.86
622.8958, 13069.99
624.8243, 13114.41
626.7527, 13144.06
628.6812, 13147.00
630.6097, 13151.25
632.5381, 13151.69
634.4666, 13162.77
636.3951, 13191.53
638.3235, 13227.74
640.2520, 13263.01
642.1805, 13308.30
644.1089, 13373.58
646.0374, 13455.16
647.9659, 13555.21
649.8943, 13666.03
651.8228, 13748.71
653.7513, 13808.25
655.6797, 13944.63
657.6082, 14133.31
659.5367, 14502.35
661.4651, 15029.46
663.3936, 15791.04
665.3221, 16993.25
667.2505, 18083.88
669.1790, 19252.66
671.1075, 19862.66
673.0359, 19534.66
674.9644, 18762.13
676.8929, 17553.47
678.8214, 16333.47
680.7498, 15418.16
682.6783, 14745.74
684.6068, 14267.16
686.5352, 13953.42
688.4637, 13742.96
690.3922, 13629.80
692.3206, 13515.95
694.2491, 13395.08
696.1776, 13318.22
698.1060, 13305.81
700.0345, 13285.42
701.9630, 13257.06
703.8914, 13216.18
705.8199, 13148.61
707.7484, 13095.41
709.6768, 13077.95
711.6053, 13060.00
713.5338, 13012.47
715.4622, 12975.32
717.3907, 12983.89
719.3192, 13006.72
721.2476, 13030.30
723.1761, 13043.43
725.1046, 13015.33
727.0330, 12971.10
728.9615, 12974.94
730.8900, 13018.80
732.8184, 13054.52
734.7469, 13081.21
736.6754, 13117.24
738.6038, 13164.96
740.5323, 13208.87
742.4608, 13254.52
744.3892, 13272.65
746.3177, 13259.98
748.2462, 13221.79
750.1746, 13146.09
752.1031, 13081.54
754.0316, 13040.47
755.9600, 13018.76
757.8885, 13031.88
759.8170, 13034.83
761.7454, 12985.54
763.6739, 12935.45
765.6024, 12916.47
767.5308, 12914.41
769.4593, 12928.00
771.3878, 12941.86
773.3162, 12930.68
775.2447, 12906.01
777.1732, 12889.06
779.1016, 12879.48
781.0301, 12877.32
782.9586, 12880.87
784.8870, 12875.79
786.8155, 12861.12
788.7440, 12862.62
790.6724, 12882.22
792.6009, 12880.61
794.5294, 12852.05
796.4578, 12840.41
798.3863, 12858.26
800.3148, 12844.96
802.2432, 12776.06
804.1717, 12725.34
806.1002, 12714.98
808.0286, 12711.91
809.9571, 12709.08
811.8856, 12706.20
813.8140, 12711.73
815.7425, 12707.27
817.6710, 12681.45
819.5994, 12651.89
821.5279, 12616.80
823.4564, 12595.76
825.3848, 12612.99
827.3134, 12638.42
829.2418, 12643.43
831.1703, 12640.03
833.0988, 12642.23
835.0272, 12646.04
836.9557, 12648.99
838.8842, 12647.21
840.8126, 12620.73
842.7411, 12586.81
844.6696, 12607.98
846.5980, 12662.14
848.5265, 12653.34
850.4550, 12596.76
852.3834, 12576.18
854.3119, 12587.23
856.2404, 12590.85
858.1688, 12586.79
860.0973, 12581.52
862.0258, 12576.15
863.9542, 12572.53
865.8827, 12571.31
867.8112, 12569.02
869.7396, 12565.15
871.6681, 12559.43
873.5966, 12549.46
875.5250, 12548.32
877.4535, 12557.83
879.3820, 12574.58
881.3104, 12603.93
883.2389, 12619.78
885.1674, 12616.46
887.0958, 12599.22
889.0243, 12553.43
890.9528, 12525.17
892.8812, 12534.93
894.8097, 12549.71
896.7382, 12573.80
898.6666, 12584.83
900.5951, 12561.18
902.5236, 12545.32
904.4520, 12549.30
906.3805, 12567.08
908.3090, 12615.36
910.2374, 12646.55
912.1659, 12606.25
914.0944, 12583.39
916.0228, 12632.76
917.9513, 12711.20
919.8798, 12815.95
921.8082, 12909.52
923.7367, 12964.19
925.6652, 13000.87
927.5936, 13051.54
929.5221, 13073.42
931.4506, 13018.54
933.3790, 12933.79
935.3075, 12843.47
937.2360, 12762.31
939.1644, 12695.11
941.0929, 12652.25
943.0214, 12667.20
944.9498, 12686.40
946.8783, 12640.18
948.8068, 12577.28
950.7352, 12550.68
952.6637, 12541.02
954.5922, 12529.29
956.5206, 12518.96
958.4491, 12521.74
960.3776, 12522.95
962.3060, 12506.61
964.2345, 12475.96
966.1630, 12421.40
968.0914, 12367.16
970.0199, 12352.29
971.9484, 12350.34
973.8768, 12318.35
975.8053, 12283.17
977.7338, 12285.72
979.6622, 12304.98
981.5907, 12317.38
983.5192, 12322.89
985.4476, 12312.73
987.3761, 12303.32
989.3046, 12325.07
991.2330, 12356.68
993.1615, 12370.48
995.0900, 12371.02
997.0184, 12353.43
998.9469, 12336.18
1000.875, 12349.05
1002.804, 12375.64
1004.732, 12398.43
1006.661, 12417.73
1008.589, 12429.02
1010.518, 12442.59
1012.446, 12460.35
1014.375, 12498.40
1016.303, 12580.17
1018.232, 12688.54
1020.160, 12813.93
1022.089, 12943.22
1024.017, 13091.96
1025.945, 13205.78
1027.874, 13244.97
1029.802, 13204.20
1031.731, 13037.89
1033.659, 12835.38
1035.588, 12642.14
1037.516, 12488.14
1039.445, 12401.26
1041.373, 12358.36
1043.302, 12345.82
1045.230, 12364.88
1047.159, 12420.98
1049.087, 12505.02
1051.016, 12644.54
1052.944, 12763.09
1054.872, 12820.88
1056.801, 12835.75
1058.729, 12812.54
1060.658, 12756.25
1062.586, 12650.63
1064.515, 12546.43
1066.443, 12464.73
1068.372, 12393.40
1070.300, 12336.70
1072.229, 12265.31
1074.157, 12154.41
1076.086, 12065.90
1078.014, 12032.40
1079.943, 11984.43
1081.871, 11890.50
1083.799, 11820.96
1085.728, 11799.10
1087.656, 11777.35
1089.585, 11742.57
1091.513, 11728.15
1093.442, 11747.59
1095.370, 11736.78
1097.299, 11681.00
1099.227, 11652.56
1101.156, 11662.16
1103.084, 11664.46
1105.013, 11654.71
1106.941, 11658.95
1108.870, 11677.07
1110.798, 11663.18
1112.726, 11618.07
1114.655, 11596.99
1116.583, 11595.11
1118.512, 11554.29
1120.440, 11491.17
1122.369, 11491.57
1124.297, 11529.82
1126.226, 11520.99
1128.154, 11486.46
1130.083, 11470.44
1132.011, 11465.67
1133.940, 11463.47
1135.868, 11459.00
1137.797, 11444.74
1139.725, 11424.45
1141.653, 11396.54
1143.582, 11371.81
1145.510, 11362.93
1147.439, 11356.83
1149.367, 11352.30
1151.296, 11337.06
1153.224, 11294.71
1155.153, 11257.53
1157.081, 11241.49
1159.010, 11227.24
1160.938, 11207.14
1162.867, 11196.06
1164.795, 11200.90
1166.724, 11200.60
1168.652, 11189.58
1170.580, 11183.29
1172.509, 11183.73
1174.437, 11182.56
1176.366, 11178.74
1178.294, 11153.23
1180.223, 11108.43
1182.151, 11070.95
1184.080, 11044.60
1186.008, 11045.23
1187.937, 11063.26
1189.865, 11079.70
1191.794, 11086.19
1193.722, 11061.33
1195.651, 11024.37
1197.579, 10999.58
1199.507, 10979.68
1201.436, 10952.97
1203.364, 10933.64
1205.293, 10940.18
1207.221, 10944.56
1209.150, 10926.76
1211.078, 10909.18
1213.007, 10900.63
1214.935, 10891.99
1216.864, 10873.63
1218.792, 10870.79
1220.721, 10898.86
1222.649, 10907.21
1224.578, 10894.31
1226.506, 10852.68
1228.434, 10781.15
1230.363, 10748.97
1232.291, 10751.22
1234.220, 10741.04
1236.148, 10723.41
1238.077, 10709.48
1240.005, 10704.00
1241.934, 10725.12
1243.862, 10747.84
1245.791, 10746.04
1247.719, 10731.78
1249.648, 10706.54
1251.576, 10685.06
1253.505, 10683.83
1255.433, 10672.31
1257.361, 10625.69
1259.290, 10599.45
1261.218, 10613.75
1263.147, 10627.80
1265.075, 10643.52
1267.004, 10635.28
1268.932, 10600.53
1270.861, 10572.18
1272.789, 10548.90
1274.718, 10510.57
1276.646, 10470.04
1278.575, 10474.29
1280.503, 10491.58
1282.432, 10465.71
1284.360, 10433.72
1286.288, 10427.44
1288.217, 10428.38
1290.145, 10429.05
1292.074, 10426.54
1294.002, 10421.87
1295.931, 10403.00
1297.859, 10356.57
1299.788, 10349.02
1301.716, 10398.12
1303.645, 10417.08
1305.573, 10403.30
1307.502, 10382.91
1309.430, 10357.40
1311.359, 10332.17
1313.287, 10308.45
1315.215, 10290.37
1317.144, 10273.58
1319.072, 10250.18
1321.001, 10230.91
1322.929, 10221.67
1324.858, 10220.69
1326.786, 10233.50
1328.715, 10228.50
1330.643, 10191.46
1332.572, 10185.47
1334.500, 10220.67
1336.429, 10194.70
1338.357, 10112.39
1340.286, 10095.71
1342.214, 10119.28
1344.142, 10113.05
1346.071, 10091.08
1347.999, 10067.59
1349.928, 10047.37
1351.856, 10031.22
1353.785, 10024.95
1355.713, 10041.54
1357.642, 10040.24
1359.570, 10008.30
1361.499, 9978.468
1363.427, 9955.792
1365.356, 9950.752
1367.284, 9958.788
1369.213, 9933.313
1371.141, 9891.777
1373.069, 9879.976
1374.998, 9880.431
1376.926, 9870.690
1378.855, 9859.768
1380.783, 9856.880
1382.712, 9850.357
1384.640, 9838.188
1386.569, 9816.729
1388.497, 9783.620
1390.426, 9758.257
1392.354, 9741.961
1394.283, 9724.500
1396.211, 9706.208
1398.140, 9690.418
1400.068, 9674.939
1401.996, 9662.509
1403.925, 9640.260
1405.853, 9577.602
1407.782, 9534.234
1409.710, 9557.801
1411.639, 9563.720
1413.567, 9528.967
1415.496, 9522.985
1417.424, 9548.116
1419.353, 9542.260
1421.281, 9512.331
1423.210, 9478.478
1425.138, 9457.433
1427.067, 9494.161
1428.995, 9522.124
1430.923, 9470.893
1432.852, 9429.934
1434.780, 9454.925
1436.709, 9451.762
1438.637, 9400.418
1440.566, 9364.811
1442.494, 9345.277
1444.423, 9323.693
1446.351, 9304.222
1448.280, 9309.251
1450.208, 9307.635
1452.137, 9253.709
1454.065, 9205.832
1455.994, 9190.896
1457.922, 9197.623
1459.850, 9252.296
1461.779, 9235.350
1463.707, 9136.014
1465.636, 9113.161
1467.564, 9141.378
1469.493, 9142.536
1471.421, 9119.437
1473.350, 9058.171
1475.278, 9007.755
1477.207, 9003.320
1479.135, 8998.018
1481.064, 8976.869
1482.992, 8960.027
1484.921, 8948.658
1486.849, 8941.194
1488.777, 8938.300
1490.706, 8958.777
1492.634, 8969.550
1494.563, 8909.303
1496.491, 8856.528
1498.420, 8855.924
1500.348, 8850.887
1502.277, 8825.718
1504.205, 8806.039
1506.134, 8793.762
1508.062, 8788.086
1509.991, 8782.145
1511.919, 8747.803
1513.848, 8717.624
1515.776, 8742.312
1517.704, 8748.224
1519.633, 8700.748
1521.561, 8671.718
1523.490, 8676.342
1525.418, 8650.890
1527.347, 8600.032
1529.275, 8559.650
1531.204, 8531.621
1533.132, 8530.348
1535.061, 8524.961
1536.989, 8487.487
1538.918, 8467.469
1540.846, 8479.885
1542.775, 8476.060
1544.703, 8451.779
1546.631, 8409.363
1548.560, 8367.990
1550.488, 8381.708
1552.417, 8398.984
1554.345, 8369.550
1556.274, 8337.815
1558.202, 8316.246
1560.131, 8289.451
1562.059, 8257.205
1563.988, 8243.676
1565.916, 8242.728
1567.845, 8241.366
1569.773, 8233.822
1571.702, 8212.321
1573.630, 8184.110
1575.559, 8140.230
1577.487, 8135.867
1579.416, 8172.067
1581.344, 8147.465
1583.272, 8085.875
1585.201, 8057.676
1587.129, 8047.145
1589.058, 8047.700
1590.986, 8046.441
1592.915, 8043.191
1594.843, 8021.572
1596.772, 7981.847
1598.700, 7977.859
1600.629, 7988.775
1602.557, 7957.844
1604.486, 7921.795
1606.414, 7912.254
1608.343, 7908.590
1610.271, 7916.308
1612.199, 7886.385
1614.128, 7822.443
1616.056, 7805.934
1617.985, 7812.463
1619.913, 7799.275
1621.842, 7780.485
1623.770, 7763.202
1625.699, 7749.063
1627.627, 7743.696
1629.556, 7721.083
1631.484, 7685.513
1633.413, 7661.565
1635.341, 7646.143
1637.270, 7634.295
1639.198, 7629.574
1641.126, 7642.435
1643.055, 7634.808
1644.983, 7601.799
1646.912, 7567.952
1648.840, 7536.424
1650.769, 7517.888
1652.697, 7501.311
1654.626, 7478.084
1656.554, 7457.482
1658.483, 7444.445
1660.411, 7409.846
1662.340, 7362.757
1664.268, 7374.565
1666.197, 7398.538
1668.125, 7378.699
1670.053, 7351.816
1671.982, 7330.251
1673.910, 7314.629
1675.839, 7304.730
1677.767, 7279.199
1679.696, 7252.510
1681.624, 7265.337
1683.553, 7262.938
1685.481, 7204.653
1687.410, 7184.741
1689.338, 7221.951
1691.267, 7223.506
1693.195, 7198.312
1695.124, 7166.685
1697.052, 7138.325
1698.980, 7114.624
1700.909, 7118.524
1702.837, 7157.015
1704.766, 7145.583
1706.694, 7097.889
1708.623, 7072.941
1710.551, 7051.651
1712.480, 7011.121
1714.408, 6980.036
1716.337, 6964.638
1718.265, 6969.979
1720.194, 6987.881
1722.122, 6989.389
1724.051, 6976.577
1725.979, 6940.896
1727.907, 6911.274
1729.836, 6893.683
1731.764, 6884.834
1733.693, 6880.862
1735.621, 6864.025
1737.550, 6851.895
1739.478, 6876.106
1741.407, 6882.944
1743.335, 6858.081
1745.264, 6839.729
1747.192, 6824.900
1749.121, 6782.743
1751.049, 6748.482
1752.978, 6776.132
1754.906, 6775.111
1756.834, 6720.319
1758.763, 6697.715
1760.691, 6698.970
1762.620, 6681.023
1764.548, 6671.647
1766.477, 6704.901
1768.405, 6726.996
1770.334, 6727.184
1772.262, 6739.066
1774.191, 6753.727
1776.119, 6745.233
1778.048, 6735.161
1779.976, 6736.642
1781.905, 6743.626
1783.833, 6756.213
1785.761, 6739.039
1787.690, 6720.744
1789.618, 6769.560
1791.547, 6793.915
1793.475, 6726.667
1795.404, 6696.734
1797.332, 6704.998
1799.261, 6694.311
1801.189, 6673.725
1803.118, 6651.596
1805.046, 6630.474
1806.975, 6611.509
1808.903, 6586.990
1810.832, 6565.168
1812.760, 6581.382
1814.688, 6600.857
1816.617, 6603.089
1818.545, 6588.409
1820.474, 6556.797
1822.402, 6519.895
1824.331, 6490.581
1826.259, 6516.337
1828.188, 6515.343
1830.116, 6448.516
1832.045, 6429.619
1833.973, 6451.821
1835.902, 6447.574
1837.830, 6427.038
1839.759, 6393.751
1841.687, 6360.540
1843.615, 6329.903
1845.544, 6313.254
1847.472, 6299.588
1849.401, 6254.139
1851.329, 6225.736
1853.258, 6241.110
1855.186, 6214.959
1857.115, 6158.503
1859.043, 6170.026
1860.972, 6191.941
1862.900, 6172.056
1864.829, 6156.937
1866.757, 6150.378
1868.686, 6129.855
1870.614, 6105.147
1872.542, 6086.132
1874.471, 6077.471
1876.399, 6081.981
1878.328, 6072.014
1880.256, 6051.557
1882.185, 6016.938
1884.113, 5991.974
1886.042, 5999.751
1887.970, 6007.515
1889.899, 6005.181
1891.827, 5945.856
1893.756, 5883.297
1895.684, 5864.549
1897.613, 5867.375
1899.541, 5890.345
1901.469, 5854.608
1903.398, 5800.861
1905.326, 5803.959
1907.255, 5798.404
1909.183, 5757.625
1911.112, 5748.114
1913.040, 5746.917
1914.969, 5683.330
1916.897, 5635.775
1918.826, 5667.941
1920.754, 5659.683
1922.683, 5618.326
1924.611, 5595.392
1926.540, 5580.160
1928.468, 5568.299
1930.396, 5562.573
1932.325, 5559.477
1934.253, 5512.330
1936.182, 5468.705
1938.110, 5488.359
1940.039, 5488.433
1941.967, 5449.954
1943.896, 5393.385
1945.824, 5358.562
1947.753, 5398.543
1949.681, 5415.223
1951.610, 5381.363
1953.538, 5351.936
1955.467, 5336.500
1957.395, 5362.436
1959.323, 5352.635
1961.252, 5280.302
1963.180, 5241.588
1965.109, 5226.044
1967.037, 5235.035
1968.966, 5215.622
1970.894, 5145.964
1972.823, 5132.808
1974.751, 5145.319
1976.680, 5111.815
1978.608, 5080.436
1980.537, 5064.598
1982.465, 5066.629
1984.394, 5073.678
1986.322, 5047.677
1988.250, 5008.388
1990.179, 4967.193
1992.107, 4953.706
1994.036, 4950.026
1995.964, 4932.823
1997.893, 4918.563
1999.821, 4905.601
2001.750, 4882.019
2003.678, 4858.887
2005.607, 4849.102
2007.535, 4837.436
2009.464, 4821.965
2011.392, 4781.605
2013.321, 4735.843
2015.249, 4712.027
2017.177, 4700.052
2019.106, 4702.813
2021.034, 4695.071
2022.963, 4674.364
2024.891, 4654.721
2026.820, 4632.834
2028.748, 4602.637
2030.677, 4574.942
2032.605, 4555.939
2034.534, 4541.220
2036.462, 4527.091
2038.391, 4524.419
2040.319, 4519.132
2042.248, 4502.694
2044.176, 4484.031
2046.104, 4456.266
2048.033, 4417.218
