##NAMES=Actinolite
##RRUFFID=R040063
##IDEAL CHEMISTRY=Ca_2_(Mg_4.5-2.5_Fe^2+^_0.5-2.5_)_&#931;=5_Si_8_O_22_(OH)_2_
##LOCALITY=Harford County, Maryland, USA
##OWNER=RRUFF
##SOURCE=University of Arizona Mineral Museum
##DESCRIPTION=Mass of green acicular to bladed crystals associated with chlorite
##STATUS=The identification of this mineral has been confirmed by X-ray diffraction and chemical analysis
##URL=rruff.info/R040063
5.000, 0.000
5.010, 23.020
5.020, 0.104
5.030, 10.997
5.040, 24.297
5.050, 19.683
5.060, 19.149
5.070, 27.893
5.080, 25.472
5.090, 21.075
5.100, 21.717
5.110, 36.390
5.120, 14.217
5.130, 23.282
5.140, 2.994
5.150, 15.714
5.160, 8.443
5.170, 14.180
5.180, 25.927
5.190, 31.684
5.200, 8.792
5.210, 9.549
5.220, 17.316
5.230, 9.092
5.240, 0.124
5.250, 26.297
5.260, 0.926
5.270, 3.861
5.280, 5.656
5.290, 13.460
5.300, 11.273
5.310, 9.093
5.320, 7.921
5.330, 10.756
5.340, 10.597
5.350, 4.444
5.360, 6.297
5.370, 8.155
5.380, 8.018
5.390, 2.115
5.400, 19.757
5.410, 24.634
5.420, 10.514
5.430, 17.398
5.440, 16.286
5.450, 20.178
5.460, 14.074
5.470, 18.973
5.480, 20.876
5.490, 4.218
5.500, 1.692
5.510, 6.605
5.520, 13.522
5.530, 3.441
5.540, 26.365
5.550, 3.293
5.560, 21.225
5.570, 18.166
5.580, 5.109
5.590, 11.054
5.600, 26.003
5.610, 5.950
5.620, 11.903
5.630, 19.857
5.640, 12.810
5.650, 18.765
5.660, 17.720
5.670, 21.676
5.680, 13.632
5.690, 13.589
5.700, 5.548
5.710, 10.509
5.720, 4.470
5.730, 12.431
5.740, 11.394
5.750, 15.357
5.760, 19.321
5.770, 4.286
5.780, 13.252
5.790, 12.220
5.800, 17.187
5.810, 9.157
5.820, 18.127
5.830, 16.098
5.840, 14.072
5.850, 24.046
5.860, 20.021
5.870, 21.999
5.880, 16.979
5.890, 10.963
5.900, 22.948
5.910, 9.933
5.920, 8.920
5.930, 16.911
5.940, 8.900
5.950, 10.889
5.960, 9.879
5.970, 8.871
5.980, 15.870
5.990, 7.871
6.000, 5.874
6.010, 16.876
6.020, 19.879
6.030, 24.882
6.040, 12.889
6.050, 18.900
6.060, 11.913
6.070, 11.927
6.080, 24.023
6.090, 32.036
6.100, 18.051
6.110, 27.127
6.120, 28.145
6.130, 41.479
6.140, 48.495
6.150, 43.514
6.160, 29.532
6.170, 49.550
6.180, 45.569
6.190, 23.588
6.200, 53.650
6.210, 57.607
6.220, 66.460
6.230, 95.766
6.240, 100.737
6.250, 93.712
6.260, 160.689
6.270, 166.667
6.280, 161.648
6.290, 165.631
6.300, 138.615
6.310, 121.602
6.320, 64.589
6.330, 55.576
6.340, 35.555
6.350, 57.545
6.360, 32.536
6.370, 14.530
6.380, 18.525
6.390, 21.521
6.400, 19.587
6.410, 9.585
6.420, 21.583
6.430, 27.583
6.440, 27.568
6.450, 19.567
6.460, 13.530
6.470, 28.531
6.480, 9.534
6.490, 31.537
6.500, 12.542
6.510, 19.547
6.520, 23.554
6.530, 15.561
6.540, 15.569
6.550, 23.578
6.560, 14.588
6.570, 14.599
6.580, 23.615
6.590, 18.568
6.600, 12.581
6.610, 18.647
6.620, 20.661
6.630, 19.676
6.640, 25.692
6.650, 13.708
6.660, 6.724
6.670, 8.742
6.680, 13.932
6.690, 8.817
6.700, 17.836
6.710, 29.855
6.720, 12.875
6.730, 23.127
6.740, 3.148
6.750, 6.169
6.760, 4.191
6.770, 11.505
6.780, 15.528
6.790, 16.551
6.800, 5.574
6.810, 16.598
6.820, 15.621
6.830, 31.645
6.840, 10.670
6.850, 15.694
6.860, 0.281
6.870, 16.780
6.880, 5.805
6.890, 2.831
6.900, 11.857
6.910, 5.883
6.920, 9.005
6.930, 13.032
6.940, 4.059
6.950, 11.086
6.960, 0.166
6.970, 7.862
6.980, 10.983
6.990, 3.011
7.000, 0.039
7.010, 9.067
7.020, 6.096
7.030, 6.124
7.040, 10.153
7.050, 16.182
7.060, 9.211
7.070, 4.241
7.080, 5.863
7.090, 8.893
7.100, 9.201
7.110, 6.231
7.120, 8.260
7.130, 13.290
7.140, 5.320
7.150, 8.379
7.160, 1.591
7.170, 5.438
7.180, 7.468
7.190, 2.591
7.200, 10.620
7.210, 16.994
7.220, 0.977
7.230, 7.052
7.240, 8.081
7.250, 4.890
7.260, 19.138
7.270, 12.165
7.280, 9.487
7.290, 10.513
7.300, 13.540
7.310, 18.567
7.320, 14.593
7.330, 8.618
7.340, 13.642
7.350, 9.667
7.360, 16.691
7.370, 10.715
7.380, 6.739
7.390, 15.763
7.400, 1.787
7.410, 0.811
7.420, 5.164
7.430, 13.857
7.440, 14.879
7.450, 15.901
7.460, 15.923
7.470, 6.945
7.480, 11.967
7.490, 6.990
7.500, 12.012
7.510, 2.034
7.520, 18.056
7.530, 8.079
7.540, 13.102
7.550, 7.125
7.560, 2.269
7.570, 17.292
7.580, 10.315
7.590, 0.662
7.600, 7.360
7.610, 20.382
7.620, 14.404
7.630, 12.427
7.640, 1.449
7.650, 12.481
7.660, 19.504
7.670, 14.526
7.680, 6.549
7.690, 20.571
7.700, 22.594
7.710, 11.617
7.720, 7.640
7.730, 18.663
7.740, 23.686
7.750, 2.708
7.760, 10.731
7.770, 0.754
7.780, 10.777
7.790, 6.800
7.800, 0.177
7.810, 3.845
7.820, 3.868
7.830, 7.890
7.840, 4.912
7.850, 2.934
7.860, 11.955
7.870, 2.023
7.880, 17.997
7.890, 12.018
7.900, 22.038
7.910, 5.058
7.920, 2.922
7.930, 4.096
7.940, 5.114
7.950, 17.132
7.960, 3.851
7.970, 1.164
7.980, 6.179
7.990, 6.193
8.000, 24.208
8.010, 9.222
8.020, 4.236
8.030, 8.250
8.040, 5.264
8.050, 2.277
8.060, 0.287
8.070, 14.300
8.080, 20.313
8.090, 3.326
8.100, 8.338
8.110, 0.649
8.120, 7.362
8.130, 10.374
8.140, 12.385
8.150, 10.604
8.160, 8.397
8.170, 0.598
8.180, 10.406
8.190, 9.409
8.200, 12.412
8.210, 6.415
8.220, 19.419
8.230, 13.422
8.240, 20.425
8.250, 6.428
8.260, 1.430
8.270, 8.567
8.280, 7.431
8.290, 3.572
8.300, 15.423
8.310, 7.417
8.320, 25.412
8.330, 6.407
8.340, 0.401
8.350, 7.395
8.360, 19.315
8.370, 3.308
8.380, 0.698
8.390, 6.295
8.400, 4.713
8.410, 4.277
8.420, 9.212
8.430, 9.201
8.440, 6.191
8.450, 5.880
8.460, 2.869
8.470, 4.141
8.480, 7.845
8.490, 10.832
8.500, 14.819
8.510, 22.805
8.520, 8.792
8.530, 18.778
8.540, 17.765
8.550, 30.751
8.560, 26.737
8.570, 36.725
8.580, 35.713
8.590, 22.700
8.600, 19.688
8.610, 33.676
8.620, 20.325
8.630, 29.313
8.640, 10.300
8.650, 2.288
8.660, 14.276
8.670, 12.264
8.680, 23.252
8.690, 9.240
8.700, 3.228
8.710, 9.216
8.720, 10.204
8.730, 12.318
8.740, 8.306
8.750, 1.706
8.760, 3.281
8.770, 12.268
8.780, 1.255
8.790, 15.171
8.800, 21.158
8.810, 11.145
8.820, 4.132
8.830, 4.119
8.840, 0.134
8.850, 14.121
8.860, 9.108
8.870, 17.121
8.880, 10.108
8.890, 3.095
8.900, 13.246
8.910, 13.233
8.920, 25.220
8.930, 15.207
8.940, 9.194
8.950, 7.181
8.960, 6.270
8.970, 15.252
8.980, 5.240
8.990, 18.227
9.000, 16.161
9.010, 1.148
9.020, 8.136
9.030, 2.123
9.040, 4.110
9.050, 16.098
9.060, 15.085
9.070, 13.900
9.080, 18.887
9.090, 13.875
9.100, 8.863
9.110, 25.850
9.120, 13.606
9.130, 19.594
9.140, 26.582
9.150, 18.570
9.160, 25.267
9.170, 23.254
9.180, 20.242
9.190, 31.230
9.200, 41.219
9.210, 42.207
9.220, 35.196
9.230, 60.185
9.240, 40.174
9.250, 52.163
9.260, 47.117
9.270, 58.108
9.280, 47.099
9.290, 52.090
9.300, 99.082
9.310, 89.983
9.320, 88.979
9.330, 75.976
9.340, 85.973
9.350, 142.251
9.360, 163.249
9.370, 163.156
9.380, 189.155
9.390, 229.155
9.400, 259.155
9.410, 299.155
9.420, 335.156
9.430, 465.157
9.440, 520.159
9.450, 641.161
9.460, 751.163
9.470, 908.573
9.480, 1058.576
9.490, 1297.300
9.500, 1671.303
9.510, 1766.307
9.520, 1768.311
9.530, 1448.315
9.540, 1114.291
9.550, 804.296
9.560, 501.301
9.570, 353.307
9.580, 245.220
9.590, 208.227
9.600, 126.889
9.610, 116.897
9.620, 107.905
9.630, 98.914
9.640, 82.923
9.650, 85.976
9.660, 58.987
9.670, 56.704
9.680, 59.715
9.690, 54.727
9.700, 44.739
9.710, 46.751
9.720, 53.764
9.730, 50.777
9.740, 63.791
9.750, 23.805
9.760, 66.139
9.770, 31.153
9.780, 59.168
9.790, 57.183
9.800, 84.203
9.810, 90.218
9.820, 77.288
9.830, 80.306
9.840, 118.324
9.850, 77.343
9.860, 72.361
9.870, 45.381
9.880, 51.400
9.890, 25.420
9.900, 8.441
9.910, 11.461
9.920, 3.518
9.930, 7.502
9.940, 15.523
9.950, 18.440
9.960, 7.461
9.970, 4.483
9.980, 9.504
9.990, 7.527
10.000, 14.550
10.010, 21.573
10.020, 10.596
10.030, 1.380
10.040, 3.633
10.050, 17.657
10.060, 1.318
10.070, 5.706
10.080, 8.731
10.090, 4.244
10.100, 6.780
10.110, 9.804
10.120, 0.829
10.130, 3.854
10.140, 4.879
10.150, 3.095
10.160, 17.930
10.170, 6.955
10.180, 7.981
10.190, 12.020
10.200, 7.047
10.210, 23.074
10.220, 23.101
10.230, 3.129
10.240, 2.157
10.250, 4.185
10.260, 11.214
10.270, 9.244
10.280, 11.274
10.290, 5.304
10.300, 12.335
10.310, 10.366
10.320, 5.398
10.330, 14.431
10.340, 16.464
10.350, 17.498
10.360, 20.534
10.370, 14.570
10.380, 44.606
10.390, 32.643
10.400, 47.680
10.410, 48.717
10.420, 67.755
10.430, 97.793
10.440, 86.831
10.450, 104.870
10.460, 104.273
10.470, 102.313
10.480, 121.460
10.490, 188.500
10.500, 252.457
10.510, 239.660
10.520, 421.701
10.530, 503.743
10.540, 687.064
10.550, 893.109
10.560, 958.304
10.570, 865.349
10.580, 717.395
10.590, 515.442
10.600, 300.489
10.610, 183.536
10.620, 136.583
10.630, 71.885
10.640, 65.933
10.650, 30.981
10.660, 35.029
10.670, 24.079
10.680, 21.130
10.690, 34.183
10.700, 18.242
10.710, 22.342
10.720, 10.395
10.730, 6.448
10.740, 6.501
10.750, 21.555
10.760, 10.608
10.770, 13.665
10.780, 3.720
10.790, 13.775
10.800, 1.979
10.810, 33.036
10.820, 3.094
10.830, 12.152
10.840, 0.789
10.850, 14.268
10.860, 6.326
10.870, 14.386
10.880, 9.445
10.890, 7.505
10.900, 2.565
10.910, 3.626
10.920, 0.686
10.930, 3.747
10.940, 3.808
10.950, 5.130
10.960, 6.928
10.970, 7.987
10.980, 9.045
10.990, 0.104
11.000, 8.163
11.010, 0.778
11.020, 5.280
11.030, 2.338
11.040, 4.397
11.050, 5.455
11.060, 4.514
11.070, 3.604
11.080, 16.663
11.090, 14.722
11.100, 4.781
11.110, 8.840
11.120, 11.772
11.130, 25.831
11.140, 0.110
11.150, 3.950
11.160, 5.009
11.170, 15.069
11.180, 5.129
11.190, 8.188
11.200, 6.248
11.210, 6.308
11.220, 13.367
11.230, 11.399
11.240, 19.459
11.250, 8.519
11.260, 4.552
11.270, 6.612
11.280, 11.672
11.290, 0.568
11.300, 11.629
11.310, 17.689
11.320, 7.749
11.330, 7.809
11.340, 11.869
11.350, 6.827
11.360, 11.887
11.370, 6.947
11.380, 0.007
11.390, 5.067
11.400, 6.127
11.410, 4.187
11.420, 5.247
11.430, 3.308
11.440, 19.368
11.450, 0.428
11.460, 16.488
11.470, 21.548
11.480, 16.609
11.490, 5.669
11.500, 18.729
11.510, 14.789
11.520, 5.849
11.530, 0.909
11.540, 13.160
11.550, 13.220
11.560, 16.280
11.570, 10.340
11.580, 1.401
11.590, 8.462
11.600, 7.523
11.610, 2.584
11.620, 1.644
11.630, 11.705
11.640, 6.765
11.650, 5.174
11.660, 17.883
11.670, 1.059
11.680, 12.998
11.690, 13.946
11.700, 1.898
11.710, 7.149
11.720, 15.196
11.730, 3.757
11.740, 2.287
11.750, 1.669
11.760, 5.374
11.770, 14.417
11.780, 5.459
11.790, 10.587
11.800, 7.629
11.810, 11.671
11.820, 3.287
11.830, 3.753
11.840, 13.817
11.850, 10.857
11.860, 11.896
11.870, 1.935
11.880, 7.974
11.890, 1.012
11.900, 0.051
11.910, 22.088
11.920, 18.126
11.930, 5.163
11.940, 7.200
11.950, 19.238
11.960, 1.274
11.970, 33.511
11.980, 19.548
11.990, 1.416
12.000, 3.619
12.010, 12.854
12.020, 6.889
12.030, 3.923
12.040, 15.914
12.050, 18.948
12.060, 10.981
12.070, 9.015
12.080, 24.048
12.090, 11.210
12.100, 13.243
12.110, 24.275
12.120, 13.434
12.130, 12.466
12.140, 9.498
12.150, 4.210
12.160, 16.241
12.170, 17.272
12.180, 6.304
12.190, 14.331
12.200, 5.362
12.210, 20.341
12.220, 2.372
12.230, 8.405
12.240, 18.465
12.250, 5.499
12.260, 0.532
12.270, 13.565
12.280, 15.597
12.290, 17.630
12.300, 18.662
12.310, 8.694
12.320, 22.726
12.330, 36.758
12.340, 19.772
12.350, 10.804
12.360, 28.835
12.370, 15.866
12.380, 10.898
12.390, 27.928
12.400, 40.959
12.410, 30.990
12.420, 35.020
12.430, 41.050
12.440, 50.080
12.450, 66.110
12.460, 71.139
12.470, 83.169
12.480, 122.198
12.490, 163.228
12.500, 185.263
12.510, 217.292
12.520, 260.322
12.530, 244.351
12.540, 228.380
12.550, 167.409
12.560, 142.437
12.570, 116.466
12.580, 76.481
12.590, 47.509
12.600, 30.537
12.610, 16.610
12.620, 30.637
12.630, 28.665
12.640, 17.692
12.650, 23.719
12.660, 23.745
12.670, 19.772
12.680, 9.799
12.690, 12.825
12.700, 18.851
12.710, 3.877
12.720, 15.902
12.730, 2.072
12.740, 16.951
12.750, 13.975
12.760, 3.998
12.770, 16.306
12.780, 7.329
12.790, 10.351
12.800, 9.373
12.810, 9.395
12.820, 22.417
12.830, 18.439
12.840, 14.460
12.850, 4.207
12.860, 18.228
12.870, 16.142
12.880, 14.162
12.890, 15.265
12.900, 7.123
12.910, 5.143
12.920, 12.163
12.930, 9.903
12.940, 18.922
12.950, 8.794
12.960, 2.813
12.970, 7.832
12.980, 1.149
12.990, 3.869
13.000, 9.887
13.010, 3.905
13.020, 8.668
13.030, 0.315
13.040, 13.702
13.050, 5.719
13.060, 10.736
13.070, 18.753
13.080, 11.770
13.090, 4.779
13.100, 7.748
13.110, 1.764
13.120, 11.781
13.130, 25.797
13.140, 10.813
13.150, 6.829
13.160, 3.158
13.170, 11.856
13.180, 1.870
13.190, 7.737
13.200, 3.249
13.210, 17.764
13.220, 14.776
13.230, 7.788
13.240, 13.800
13.250, 1.813
13.260, 2.825
13.270, 16.838
13.280, 2.149
13.290, 4.862
13.300, 6.874
13.310, 2.115
13.320, 20.895
13.330, 17.905
13.340, 6.915
13.350, 7.927
13.360, 2.938
13.370, 7.067
13.380, 8.128
13.390, 18.140
13.400, 4.152
13.410, 17.163
13.420, 7.723
13.430, 0.264
13.440, 23.969
13.450, 9.981
13.460, 3.963
13.470, 17.976
13.480, 15.991
13.490, 14.005
13.500, 12.019
13.510, 15.035
13.520, 8.051
13.530, 12.067
13.540, 7.083
13.550, 15.098
13.560, 14.114
13.570, 15.129
13.580, 9.145
13.590, 7.160
13.600, 5.175
13.610, 16.191
13.620, 15.206
13.630, 4.221
13.640, 3.236
13.650, 8.253
13.660, 11.268
13.670, 17.282
13.680, 8.297
13.690, 0.312
13.700, 6.326
13.710, 4.340
13.720, 2.355
13.730, 7.369
13.740, 1.383
13.750, 15.397
13.760, 3.411
13.770, 8.425
13.780, 10.439
13.790, 11.453
13.800, 0.534
13.810, 16.480
13.820, 8.493
13.830, 9.543
13.840, 18.556
13.850, 15.569
13.860, 12.584
13.870, 15.597
13.880, 3.610
13.890, 2.622
13.900, 9.635
13.910, 5.648
13.920, 15.660
13.930, 13.481
13.940, 23.494
13.950, 9.506
13.960, 4.482
13.970, 10.528
13.980, 17.538
13.990, 5.548
14.000, 14.558
14.010, 7.568
14.020, 16.577
14.030, 16.587
14.040, 1.403
14.050, 7.607
14.060, 1.617
14.070, 8.628
14.080, 11.639
14.090, 5.653
14.100, 4.668
14.110, 8.684
14.120, 9.699
14.130, 19.715
14.140, 0.732
14.150, 10.748
14.160, 9.765
14.170, 10.782
14.180, 11.714
14.190, 11.730
14.200, 8.747
14.210, 14.764
14.220, 20.782
14.230, 11.774
14.240, 1.792
14.250, 1.810
14.260, 1.828
14.270, 7.846
14.280, 8.863
14.290, 21.881
14.300, 7.899
14.310, 3.917
14.320, 14.936
14.330, 21.955
14.340, 17.976
14.350, 17.001
14.360, 8.821
14.370, 7.842
14.380, 2.862
14.390, 10.883
14.400, 6.703
14.410, 17.724
14.420, 6.746
14.430, 3.767
14.440, 10.968
14.450, 10.989
14.460, 6.010
14.470, 12.031
14.480, 9.922
14.490, 16.944
14.500, 13.965
14.510, 10.859
14.520, 6.880
14.530, 10.902
14.540, 9.924
14.550, 20.946
14.560, 2.031
14.570, 0.903
14.580, 5.118
14.590, 15.138
14.600, 13.159
14.610, 8.821
14.620, 6.573
14.630, 3.439
14.640, 12.575
14.650, 24.588
14.660, 12.602
14.670, 24.063
14.680, 14.076
14.690, 11.090
14.700, 14.488
14.710, 11.501
14.720, 11.515
14.730, 7.528
14.740, 12.542
14.750, 6.555
14.760, 22.569
14.770, 13.582
14.780, 15.595
14.790, 4.608
14.800, 2.621
14.810, 13.634
14.820, 11.647
14.830, 10.660
14.840, 1.673
14.850, 20.686
14.860, 10.698
14.870, 16.711
14.880, 13.724
14.890, 8.732
14.900, 13.745
14.910, 13.757
14.920, 17.770
14.930, 13.783
14.940, 4.796
14.950, 24.808
14.960, 5.821
14.970, 2.848
14.980, 22.861
14.990, 19.874
15.000, 16.841
15.010, 7.854
15.020, 0.134
15.030, 13.878
15.040, 14.890
15.050, 1.902
15.060, 8.913
15.070, 18.925
15.080, 8.936
15.090, 6.948
15.100, 16.959
15.110, 14.970
15.120, 10.981
15.130, 2.993
15.140, 7.005
15.150, 15.035
15.160, 15.761
15.170, 9.772
15.180, 7.786
15.190, 10.799
15.200, 9.813
15.210, 5.826
15.220, 23.839
15.230, 10.852
15.240, 13.779
15.250, 5.792
15.260, 7.805
15.270, 23.817
15.280, 9.830
15.290, 10.843
15.300, 10.855
15.310, 10.868
15.320, 2.880
15.330, 5.897
15.340, 8.907
15.350, 10.919
15.360, 15.931
15.370, 4.943
15.380, 10.955
15.390, 2.968
15.400, 11.980
15.410, 14.993
15.420, 6.005
15.430, 17.017
15.440, 12.029
15.450, 9.041
15.460, 8.053
15.470, 10.065
15.480, 5.077
15.490, 7.088
15.500, 4.100
15.510, 11.378
15.520, 13.389
15.530, 16.731
15.540, 1.742
15.550, 6.753
15.560, 11.765
15.570, 15.783
15.580, 8.795
15.590, 11.807
15.600, 9.819
15.610, 10.832
15.620, 20.844
15.630, 2.144
15.640, 11.866
15.650, 8.876
15.660, 12.887
15.670, 3.897
15.680, 20.908
15.690, 16.920
15.700, 8.932
15.710, 2.944
15.720, 18.167
15.730, 10.179
15.740, 13.190
15.750, 10.202
15.760, 0.905
15.770, 16.057
15.780, 27.067
15.790, 12.076
15.800, 10.086
15.810, 5.452
15.820, 6.564
15.830, 11.350
15.840, 12.355
15.850, 8.361
15.860, 6.634
15.870, 3.368
15.880, 8.369
15.890, 5.630
15.900, 12.368
15.910, 13.365
15.920, 7.365
15.930, 9.362
15.940, 10.359
15.950, 25.357
15.960, 21.354
15.970, 18.352
15.980, 5.349
15.990, 13.346
16.000, 3.344
16.010, 13.341
16.020, 5.337
16.030, 18.373
16.040, 19.367
16.050, 7.364
16.060, 7.360
16.070, 5.356
16.080, 10.459
16.090, 4.455
16.100, 7.451
16.110, 12.447
16.120, 2.445
16.130, 11.441
16.140, 13.436
16.150, 7.435
16.160, 0.485
16.170, 13.479
16.180, 19.473
16.190, 12.468
16.200, 12.463
16.210, 7.457
16.220, 6.415
16.230, 13.410
16.240, 4.404
16.250, 6.396
16.260, 11.390
16.270, 9.384
16.280, 13.377
16.290, 17.371
16.300, 15.364
16.310, 18.357
16.320, 19.350
16.330, 11.343
16.340, 0.335
16.350, 17.327
16.360, 6.321
16.370, 4.774
16.380, 4.767
16.390, 6.760
16.400, 3.752
16.410, 23.744
16.420, 14.736
16.430, 1.728
16.440, 9.720
16.450, 12.712
16.460, 7.704
16.470, 7.695
16.480, 18.686
16.490, 3.677
16.500, 15.668
16.510, 14.659
16.520, 1.649
16.530, 9.639
16.540, 8.629
16.550, 6.619
16.560, 10.609
16.570, 17.598
16.580, 14.707
16.590, 12.697
16.600, 4.686
16.610, 17.674
16.620, 11.663
16.630, 4.651
16.640, 10.644
16.650, 8.632
16.660, 8.619
16.670, 9.607
16.680, 9.594
16.690, 7.581
16.700, 3.432
16.710, 10.552
16.720, 4.464
16.730, 10.517
16.740, 7.493
16.750, 15.708
16.760, 1.688
16.770, 8.668
16.780, 5.648
16.790, 3.628
16.800, 6.607
16.810, 22.587
16.820, 23.566
16.830, 12.370
16.840, 13.349
16.850, 4.454
16.860, 17.432
16.870, 11.410
16.880, 25.708
16.890, 8.687
16.900, 22.665
16.910, 2.356
16.920, 7.620
16.930, 20.596
16.940, 19.572
16.950, 21.548
16.960, 2.416
16.970, 16.392
16.980, 21.368
16.990, 8.344
17.000, 16.319
17.010, 0.920
17.020, 14.897
17.030, 11.875
17.040, 7.853
17.050, 12.831
17.060, 14.362
17.070, 12.340
17.080, 13.317
17.090, 10.911
17.100, 19.888
17.110, 0.865
17.120, 6.842
17.130, 14.931
17.140, 9.908
17.150, 7.884
17.160, 11.978
17.170, 18.954
17.180, 15.930
17.190, 15.906
17.200, 33.882
17.210, 23.858
17.220, 0.166
17.230, 5.809
17.240, 1.853
17.250, 2.828
17.260, 8.802
17.270, 1.223
17.280, 5.751
17.290, 8.724
17.300, 3.698
17.310, 0.671
17.320, 6.644
17.330, 8.617
17.340, 0.590
17.350, 0.437
17.360, 13.520
17.370, 17.492
17.380, 21.464
17.390, 29.595
17.400, 23.567
17.410, 27.539
17.420, 19.511
17.430, 14.482
17.440, 32.454
17.450, 54.425
17.460, 60.397
17.470, 75.368
17.480, 51.339
17.490, 49.311
17.500, 45.282
17.510, 55.253
17.520, 38.224
17.530, 39.195
17.540, 10.148
17.550, 23.118
17.560, 6.911
17.570, 11.056
17.580, 14.022
17.590, 9.989
17.600, 14.955
17.610, 24.922
17.620, 10.888
17.630, 17.850
17.640, 17.816
17.650, 9.782
17.660, 10.748
17.670, 0.714
17.680, 6.680
17.690, 7.646
17.700, 13.613
17.710, 10.579
17.720, 11.541
17.730, 10.508
17.740, 16.474
17.750, 15.441
17.760, 12.407
17.770, 1.627
17.780, 0.339
17.790, 6.304
17.800, 7.269
17.810, 9.234
17.820, 4.199
