##NAMES=Actinolite
##RRUFFID=R040063
##IDEAL CHEMISTRY=Ca_2_(Mg_4.5-2.5_Fe^2+^_0.5-2.5_)_&#931;=5_Si_8_O_22_(OH)_2_
##LOCALITY=Harford County, Maryland, USA
##OWNER=RRUFF
##SOURCE=University of Arizona Mineral Museum
##DESCRIPTION=Mass of green acicular to bladed crystals associated with chlorite
##STATUS=The identification of this mineral has been confirmed by X-ray diffraction and chemical analysis
##URL=rruff.info/R040063
119.0020, 0.0000000E+00
120.2440, 102.0850
121.4850, 144.9810
122.7270, 369.8140
123.9690, 205.6807
125.2100, 118.9595
126.4510, 77.41504
127.6920, 100.1475
128.9320, 73.99561
130.1730, 33.49805
131.4130, 46.33350
132.6530, 27.92432
133.8930, 12.60547
135.1320, 13.91846
136.3720, 53.34619
137.6110, 332.2568
138.8500, 428.6890
140.0890, 399.5591
141.3270, 432.8027
142.5660, 194.2935
143.8040, 318.9224
145.0420, 448.6021
146.2800, 665.2944
147.5180, 939.9434
148.7550, 1264.481
149.9920, 1696.854
151.2290, 2506.012
152.4660, 3376.914
153.7030, 4503.524
154.9390, 5477.807
156.1760, 6302.734
157.4120, 7113.267
158.6470, 7486.351
159.8830, 7264.124
161.1190, 6760.949
162.3540, 6090.188
163.5890, 5384.787
164.8240, 4089.735
166.0580, 3530.023
167.2930, 3547.641
168.5270, 3969.583
169.7610, 4289.849
170.9950, 5336.502
172.2290, 6289.831
173.4620, 7221.581
174.6960, 8041.605
175.9290, 9029.902
177.1620, 9500.480
178.3940, 9391.329
179.6270, 8596.446
180.8590, 7598.838
182.0910, 6392.499
183.3230, 5097.428
184.5550, 3770.621
185.7860, 2955.079
187.0180, 2333.798
188.2490, 1893.776
189.4800, 1633.012
190.7110, 1423.501
191.9410, 1242.244
193.1710, 1203.194
194.4020, 1155.210
195.6310, 1197.275
196.8610, 1215.362
198.0910, 1458.481
199.3200, 1580.258
200.5490, 1927.075
201.7780, 2370.497
203.0070, 2807.681
204.2360, 3219.793
205.4640, 3909.030
206.6920, 4882.402
207.9200, 5812.910
209.1480, 7212.561
210.3760, 8788.354
211.6030, 10609.29
212.8300, 13042.39
214.0570, 15747.63
215.2840, 18634.02
216.5110, 22239.61
217.7370, 26229.41
218.9630, 29516.41
220.1890, 33270.61
221.4150, 36866.48
222.6410, 39262.18
223.8660, 41851.31
225.0920, 43816.19
226.3170, 45378.00
227.5420, 46570.53
228.7660, 47233.22
229.9910, 47093.61
231.2150, 46162.18
232.4390, 44228.93
233.6630, 40884.86
234.8870, 36478.96
236.1100, 31658.24
237.3340, 26843.68
238.5570, 22216.30
239.7800, 19060.07
241.0020, 16769.03
242.2250, 15235.14
243.4470, 14637.42
244.6690, 14289.86
245.8910, 14317.46
247.1130, 14473.22
248.3350, 14917.14
249.5560, 14432.21
250.7770, 13695.43
251.9980, 12834.80
253.2190, 11555.33
254.4400, 10071.00
255.6600, 8893.824
256.8800, 7411.794
258.1010, 6347.908
259.3200, 5466.164
260.5400, 4528.562
261.7590, 3741.102
262.9790, 3008.780
264.1980, 2512.596
265.4170, 2059.547
266.6350, 1765.188
267.8540, 1338.620
269.0720, 1081.816
270.2900, 867.6079
271.5080, 655.4399
272.7260, 530.5635
273.9440, 317.9380
275.1610, 204.2734
276.3780, 142.7295
277.5950, 12.09717
278.8120, 55.23633
280.0280, 130.1084
281.2450, 79.91357
282.4610, 137.9282
283.6770, 229.3188
284.8930, 79.52881
286.1080, 13.45312
287.3240, 61.62549
288.5390, 21.98340
289.7540, 198.5205
290.9690, 228.2319
292.1840, 339.1118
293.3980, 675.1558
294.6120, 845.3604
295.8260, 1232.721
297.0400, 1369.233
298.2540, 1644.895
299.4680, 2112.702
300.6810, 2195.651
301.8940, 2259.738
303.1070, 2467.964
304.3200, 2443.322
305.5320, 2385.812
306.7450, 2331.429
307.9570, 2042.174
309.1690, 1719.047
310.3810, 1641.355
311.5920, 1371.779
312.8040, 1124.298
314.0150, 949.6206
315.2260, 874.1206
316.4370, 590.6792
317.6480, 301.5156
318.8580, 328.9458
320.0680, 124.4473
321.2780, 46.14453
322.4880, 26.95850
323.6980, 60.81689
324.9080, 77.55078
326.1170, 215.1157
327.3260, 90.50537
328.5350, 161.7617
329.7440, 57.85840
330.9520, 64.80273
332.1610, 29.59570
333.3690, 201.7344
334.5770, 288.1729
335.7850, 417.7256
336.9930, 647.3809
338.2000, 858.6074
339.4070, 1185.980
340.6140, 1469.916
341.8210, 1878.938
343.0280, 2336.049
344.2340, 2878.248
345.4410, 3459.523
346.6470, 3896.855
347.8530, 4505.208
349.0590, 4935.639
350.2640, 5444.157
351.4700, 5580.764
352.6750, 5973.455
353.8800, 6616.232
355.0850, 5799.096
356.2890, 5511.043
357.4940, 5839.075
358.6980, 6077.190
359.9020, 6786.387
361.1060, 7668.667
362.3100, 8869.027
363.5130, 10492.47
364.7160, 12315.99
365.9200, 14116.58
367.1220, 16363.25
368.3250, 16702.99
369.5280, 17225.75
370.7300, 17196.56
371.9320, 16557.44
373.1340, 14959.39
374.3360, 12980.41
375.5380, 11464.50
376.7390, 10011.67
377.9410, 8957.905
379.1420, 8364.213
380.3430, 8314.589
381.5430, 8465.035
382.7440, 9336.548
383.9440, 10434.12
385.1440, 11792.77
386.3440, 13856.48
387.5440, 15956.26
388.7440, 18244.10
389.9430, 20517.01
391.1420, 22063.97
392.3410, 22847.00
393.5400, 23171.09
394.7390, 22403.24
395.9370, 20601.45
397.1350, 18453.73
398.3340, 15880.06
399.5310, 13418.45
400.7290, 11719.89
401.9270, 10313.40
403.1240, 9489.957
404.3210, 9367.575
405.5180, 9702.247
406.7150, 10235.97
407.9120, 11239.75
409.1080, 12258.59
410.3040, 13569.47
411.5000, 15280.43
412.6960, 16255.47
413.8920, 17049.58
415.0870, 17581.76
416.2830, 17635.03
417.4780, 16968.37
418.6730, 15732.80
419.8680, 14424.31
421.0620, 12508.88
422.2570, 10714.40
423.4510, 9244.391
424.6450, 7987.752
425.8390, 6787.392
427.0320, 6062.709
428.2260, 5730.314
429.4190, 5594.177
430.6120, 5737.341
431.8050, 5920.572
432.9980, 6340.865
434.1900, 6880.221
435.3830, 7139.640
436.5750, 6992.119
437.7670, 6661.656
438.9590, 6118.254
440.1500, 5171.910
441.3420, 4096.622
442.5330, 3156.391
443.7240, 2346.216
444.9150, 1643.095
446.1060, 1125.027
447.2960, 753.0122
448.4870, 600.0493
449.6770, 392.1382
450.8670, 65.51074
452.0570, 82.20166
453.2460, 15.24170
454.4360, 56.82373
455.6250, 8.379395
456.8140, 107.9165
458.0030, 104.4604
459.1920, 28.01465
460.3800, 63.12695
461.5690, 39.02100
462.7570, 155.0347
463.9450, 84.45166
465.1330, 108.1040
466.3200, 8.500977
467.5080, 154.2622
468.6950, 33.76904
469.8820, 141.1870
471.0690, 67.84570
472.2560, 60.73193
473.4420, 112.7007
474.6280, 169.2422
475.8150, 120.6558
477.0010, 163.8223
478.1860, 252.5063
479.3720, 386.8599
480.5570, 453.6025
481.7430, 541.1865
482.9280, 670.1797
484.1130, 783.1006
485.2970, 767.9463
486.4820, 805.8018
487.6660, 743.6675
488.8500, 694.5415
490.0340, 575.4238
491.2180, 487.3145
492.4020, 310.2134
493.5850, 260.1187
494.7680, 227.0308
495.9520, 290.9482
497.1340, 331.5522
498.3170, 471.7979
499.5000, 541.7285
500.6820, 680.5850
501.8640, 740.5981
503.0460, 987.5361
504.2280, 1215.475
505.4100, 1408.415
506.5910, 1772.354
507.7720, 2118.606
508.9530, 2530.229
510.1340, 2989.165
511.3150, 3460.098
512.4960, 3977.028
513.6760, 4581.954
514.8560, 5261.877
516.0360, 5871.797
517.2160, 6350.714
518.3960, 6890.626
519.5750, 7249.534
520.7550, 7511.436
521.9340, 7867.333
523.1130, 8004.252
524.2910, 8194.177
525.4700, 8370.146
526.6480, 8272.139
527.8270, 8210.145
529.0050, 8177.149
530.1820, 7724.150
531.3600, 7088.154
532.5380, 6305.168
533.7150, 5678.201
534.8920, 4974.253
536.0690, 4381.325
537.2460, 3773.406
538.4220, 3310.500
539.5990, 3145.609
540.7750, 2781.733
541.9510, 2581.880
543.1270, 2395.030
544.3030, 2157.188
545.4780, 2017.332
546.6540, 2105.470
547.8290, 1868.603
549.0040, 1831.745
550.1790, 1577.889
551.3530, 1573.022
552.5280, 1463.142
553.7020, 1538.246
554.8760, 1368.346
556.0500, 1325.429
557.2240, 1251.507
558.3970, 1188.579
559.5710, 1228.685
560.7440, 1146.764
561.9170, 1160.835
563.0900, 1152.876
564.2630, 1218.893
565.4350, 1194.882
566.6080, 1247.863
567.7800, 1273.818
568.9520, 1257.755
570.1240, 1258.683
571.2950, 1183.583
572.4670, 1274.451
573.6380, 1280.284
574.8090, 1422.082
575.9800, 1258.844
577.1510, 1332.570
578.3210, 1338.259
579.4920, 1359.910
580.6620, 1245.523
581.8320, 1209.098
583.0020, 1224.633
584.1710, 950.1284
585.3410, 897.5830
586.5100, 770.9976
587.6790, 740.3701
588.8480, 593.6997
590.0170, 409.9878
591.1860, 257.2324
592.3540, 195.4287
593.5220, 60.56348
594.6910, 6.689941
595.8590, 27.96875
597.0260, 71.56396
598.1940, 130.6006
599.3610, 241.9556
600.5280, 199.4106
601.6950, 202.1777
602.8620, 120.5771
604.0290, 172.0664
605.1960, 189.7866
606.3620, 77.74756
607.5280, 218.9663
608.6940, 107.3613
609.8600, 197.9521
611.0260, 16.23193
612.1910, 112.7144
613.3560, 54.85010
614.5210, 49.15771
615.6860, 71.36523
616.8510, 174.7739
618.0160, 129.0981
619.1800, 209.3247
620.3440, 237.4731
621.5080, 303.5498
622.6720, 363.5645
623.8360, 386.5234
625.0000, 453.4272
626.1630, 565.2778
627.3260, 578.0742
628.4890, 742.8154
629.6520, 860.5034
630.8150, 682.1362
631.9770, 942.7148
633.1390, 921.2383
634.3020, 1081.706
635.4640, 1229.118
636.6250, 1417.476
637.7870, 1591.777
638.9480, 1737.021
640.1100, 2007.210
641.2710, 2396.343
642.4320, 2597.418
643.5930, 3135.438
644.7530, 3277.400
645.9140, 3823.305
647.0740, 4292.153
648.2340, 4738.943
649.3940, 5672.677
650.5530, 6262.352
651.7130, 6897.970
652.8720, 7508.530
654.0320, 8477.032
655.1910, 9507.507
656.3490, 10639.61
657.5080, 11897.98
658.6670, 13599.35
659.8250, 15700.04
660.9830, 18430.42
662.1410, 22324.51
663.2990, 26692.68
664.4570, 33302.32
665.6140, 40443.39
666.7710, 49738.96
667.9280, 59739.01
669.0850, 70322.70
670.2420, 80557.38
671.3990, 88864.09
672.5550, 93944.13
673.7110, 94078.98
674.8680, 90121.62
676.0230, 81456.09
677.1790, 70607.42
678.3350, 58575.25
679.4900, 47605.29
680.6450, 38318.39
681.8000, 30439.41
682.9550, 24500.96
684.1100, 19792.25
685.2650, 16332.76
686.4190, 13663.35
687.5730, 11460.19
688.7270, 9895.916
689.8810, 8413.160
691.0350, 7626.019
692.1880, 6669.434
693.3420, 6058.782
694.4950, 5292.244
695.6480, 4789.473
696.8010, 4412.360
697.9530, 3935.953
699.1060, 3636.205
700.2580, 3328.650
701.4100, 3030.510
702.5620, 2889.467
703.7140, 2671.187
704.8660, 2579.677
706.0170, 2323.258
707.1680, 2252.768
708.3200, 2133.208
709.4700, 1997.578
710.6210, 1996.878
711.7720, 1874.327
712.9220, 1862.404
714.0730, 1689.362
715.2230, 1822.385
716.3730, 1678.338
717.5220, 1619.223
718.6720, 1588.039
719.8210, 1474.786
720.9710, 1411.466
722.1200, 1407.076
723.2690, 1390.569
724.4170, 1512.095
725.5660, 1491.502
726.7140, 1448.843
727.8630, 1590.115
729.0110, 1559.322
730.1590, 1547.229
731.3060, 1669.799
732.4540, 1748.487
733.6010, 1809.294
734.7480, 2014.049
735.8950, 2175.765
737.0420, 2257.454
738.1890, 2630.121
739.3360, 2844.322
740.4820, 2826.274
741.6280, 3186.249
742.7740, 3489.841
743.9200, 3818.176
745.0660, 4006.404
746.2110, 4401.640
747.3570, 4615.755
748.5020, 5042.062
749.6470, 4994.673
750.7920, 4814.104
751.9360, 4319.061
753.0810, 3865.271
754.2250, 3410.234
755.3690, 2763.812
756.5130, 2444.846
757.6570, 2054.186
758.8010, 1840.108
759.9440, 1586.163
761.0880, 1297.781
762.2310, 1132.444
763.3740, 1208.155
764.5170, 922.8276
765.6590, 1081.462
766.8020, 1050.060
767.9440, 956.6187
769.0860, 833.1406
770.2280, 858.6265
771.3700, 913.0762
772.5120, 618.4902
773.6530, 648.8687
774.7950, 717.2129
775.9360, 662.5215
777.0770, 629.7964
778.2180, 540.0376
779.3580, 533.2461
780.4990, 457.4209
781.6390, 486.5645
782.7790, 370.6758
783.9190, 433.7563
785.0590, 309.8057
786.1990, 297.8252
787.3380, 264.8149
788.4780, 188.7754
789.6170, 159.7070
790.7560, 190.6108
791.8950, 140.4863
793.0330, 56.33447
794.1720, 130.1470
795.3100, 110.9326
796.4480, 58.69092
797.5860, 74.41797
798.7240, 55.88232
799.8620, 12.26367
800.9990, 165.7007
802.1360, 80.27295
803.2740, 26.93457
804.4110, 5.655273
805.5470, 13.57715
806.6840, 21.51855
807.8210, 57.07715
808.9570, 81.00000
810.0930, 97.00195
811.2290, 96.80420
812.3650, 65.26514
813.5010, 82.50684
814.6360, 92.82178
815.7710, 99.85742
816.9070, 135.6885
818.0420, 58.25977
819.1760, 85.88574
820.3110, 3.579102
821.4460, 44.29590
822.5800, 48.82812
823.7140, 103.8574
824.8480, 89.73047
825.9820, 37.66406
827.1160, 34.69629
828.2490, 29.21973
829.3820, 81.64453
830.5160, 36.71289
831.6490, 86.80566
832.7820, 84.94727
833.9140, 243.1348
835.0470, 12.45020
836.1790, 88.77832
837.3110, 43.85254
838.4430, 8.521484
839.5750, 110.0947
840.7070, 67.29297
841.8380, 51.29395
842.9700, 207.8779
844.1010, 427.4580
845.2320, 323.1318
846.3630, 366.6133
847.4940, 139.1885
848.6240, 254.7637
849.7550, 221.3389
850.8850, 267.9141
852.0150, 318.4893
853.1450, 289.0664
854.2750, 246.6465
855.4040, 173.2285
856.5340, 216.8145
857.6630, 381.4043
858.7920, 330.9971
859.9210, 474.5957
861.0500, 351.2002
862.1780, 338.8086
863.3070, 330.4258
864.4350, 382.0488
865.5630, 368.8213
866.6910, 253.3203
867.8190, 368.9785
868.9460, 317.6758
870.0740, 271.4277
871.2010, 403.2285
872.3280, 272.0674
873.4550, 331.9971
874.5820, 274.0469
875.7090, 380.2070
876.8350, 527.4766
877.9610, 448.8379
879.0880, 511.3027
880.2140, 388.8779
881.3390, 471.5342
882.4650, 465.3096
883.5910, 461.1768
884.7160, 548.1582
885.8410, 576.1992
886.9660, 536.3340
888.0910, 624.5488
889.2160, 689.8428
890.3400, 676.1865
891.4650, 707.5645
892.5890, 848.9824
893.7130, 761.4326
894.8370, 838.9131
895.9600, 883.4160
897.0840, 828.9414
898.2070, 902.4873
899.3310, 1026.070
900.4540, 1088.675
901.5770, 1190.291
902.6990, 1264.048
903.8220, 1366.619
904.9440, 1448.328
906.0670, 1515.066
907.1890, 1704.827
908.3110, 1742.626
909.4320, 1880.477
910.5540, 2113.355
911.6750, 2250.305
912.7970, 2364.242
913.9180, 2689.239
915.0390, 2944.291
916.1600, 3228.393
917.2800, 3643.565
918.4010, 4091.791
919.5210, 4405.058
920.6410, 5008.364
921.7610, 5887.739
922.8810, 6789.166
924.0010, 7953.635
925.1200, 9028.178
926.2400, 10215.75
927.3590, 11025.34
928.4780, 11961.28
929.5970, 12418.94
930.7160, 12445.62
931.8340, 12020.99
932.9530, 11015.65
934.0710, 10003.59
935.1890, 8635.429
936.3070, 7508.836
937.4250, 6477.800
938.5420, 5785.305
939.6600, 5205.305
940.7770, 4944.651
941.8940, 4947.010
943.0110, 4803.300
944.1280, 5018.253
945.2450, 5191.398
946.3610, 5176.752
947.4770, 5094.273
948.5940, 4886.904
949.7100, 4899.022
950.8250, 4176.898
951.9410, 3998.706
953.0570, 3513.552
954.1720, 3233.861
955.2870, 3030.410
956.4020, 2694.707
957.5170, 2451.912
958.6320, 2243.854
959.7470, 2118.880
960.8610, 1904.386
961.9750, 1888.255
963.0890, 1816.557
964.2030, 1742.903
965.3170, 1658.115
966.4310, 1739.545
967.5440, 1651.290
968.6570, 1445.313
969.7710, 1624.652
970.8840, 1561.777
971.9960, 1456.466
973.1090, 1601.037
974.2220, 1697.824
975.3340, 1623.823
976.4460, 1665.125
977.5580, 1696.963
978.6700, 1585.650
979.7820, 1726.694
980.8930, 1721.790
982.0050, 1665.938
983.1160, 1799.143
984.2270, 1904.397
985.3380, 1895.701
986.4490, 1880.054
987.5600, 1965.453
988.6700, 1866.901
989.7800, 2017.396
990.8900, 1987.938
992.0000, 2086.527
993.1100, 2205.165
994.2200, 2158.851
995.3300, 2413.585
996.4390, 2490.365
997.5480, 2759.193
998.6570, 2881.069
999.7660, 3132.991
1000.875, 3308.960
1001.983, 3622.976
1003.092, 3724.038
1004.200, 4137.146
1005.308, 4195.303
1006.416, 4487.501
1007.524, 4682.744
1008.632, 4905.033
1009.739, 5249.365
1010.846, 5512.740
1011.954, 5921.157
1013.061, 6040.620
1014.167, 6684.123
1015.274, 7131.668
1016.381, 7796.255
1017.487, 8788.878
1018.593, 9599.544
1019.699, 10911.25
1020.805, 12620.99
1021.911, 14854.78
1023.017, 17168.60
1024.122, 19971.45
1025.227, 22471.35
1026.333, 25303.29
1027.438, 27190.26
1028.542, 28005.26
1029.647, 27588.52
1030.752, 25881.60
1031.856, 23284.86
1032.960, 20369.14
1034.064, 17119.45
1035.168, 14489.67
1036.272, 12505.37
1037.375, 10867.25
1038.479, 9397.079
1039.582, 8512.443
1040.685, 7839.672
1041.788, 7630.094
1042.891, 7308.424
1043.994, 7119.578
1045.096, 7347.738
1046.198, 7579.891
1047.301, 8153.271
1048.403, 8775.132
1049.505, 9758.271
1050.606, 10865.78
1051.708, 12184.47
1052.809, 13436.62
1053.911, 14876.01
1055.012, 16396.21
1056.113, 17363.67
1057.213, 18110.45
1058.314, 18209.57
1059.414, 17867.38
1060.515, 17055.22
1061.615, 15884.86
1062.715, 15057.49
1063.815, 14096.43
1064.915, 13736.96
1066.014, 13329.09
1067.114, 13279.30
1068.213, 12928.99
1069.312, 12042.10
1070.411, 10967.74
1071.510, 9905.627
1072.608, 8536.416
1073.707, 7408.215
1074.805, 6395.441
1075.903, 5601.980
1077.001, 4860.527
1078.099, 4266.873
1079.197, 4101.390
1080.294, 3607.568
1081.392, 3320.637
1082.489, 2967.572
1083.586, 2771.748
1084.683, 2383.660
1085.780, 2339.461
1086.877, 2076.906
1087.973, 2042.851
1089.069, 1722.653
1090.166, 1667.355
1091.262, 1575.812
1092.358, 1426.169
1093.453, 1513.700
1094.549, 1342.422
1095.644, 1426.796
1096.739, 1316.129
1097.835, 1261.904
1098.930, 1455.160
1100.024, 1408.488
1101.119, 1214.156
1102.214, 1321.964
1103.308, 1288.792
1104.402, 1371.888
1105.496, 1263.621
1106.590, 1361.526
1107.684, 1335.685
1108.777, 1145.537
1109.871, 1218.668
1110.964, 1152.422
1112.057, 1172.210
1113.150, 1207.947
1114.243, 1168.261
1115.336, 1114.040
1116.428, 1260.932
1117.521, 1192.575
1118.613, 1228.100
1119.705, 1514.560
1120.797, 1497.077
1121.889, 1603.336
1122.980, 1406.727
1124.072, 1404.455
1125.163, 1404.119
1126.254, 1132.628
1127.345, 945.0693
1128.436, 930.2354
1129.527, 785.2109
1130.617, 849.1523
1131.708, 704.5352
1132.798, 659.8789
1133.888, 651.2627
1134.978, 561.6299
1136.068, 544.8086
1137.157, 392.9766
1138.247, 468.1367
1139.336, 543.2871
1140.425, 361.4316
1141.514, 444.5684
1142.603, 399.6963
1143.692, 312.1221
1144.781, 366.2305
1145.869, 368.3291
1146.957, 226.4131
1148.046, 178.4902
1149.134, 209.5547
1150.221, 155.6064
1151.309, 133.6260
1152.397, 134.8633
1153.484, 73.70410
1154.571, 104.6953
1155.658, 96.67383
1156.745, 52.64258
1157.832, 128.5947
1158.919, 94.53027
1160.005, 0.5517580
1161.092, 76.34570
1162.178, 74.77344
1163.264, 20.05762
1164.350, 25.86816
1165.435, 208.6592
1166.521, 5.571289
1167.606, 55.82910
1168.692, 33.11328
1169.777, 86.56543
1170.862, 53.76855
1171.947, 102.1533
1173.031, 12.61719
1174.116, 61.11035
1175.200, 74.66406
1176.285, 7.282227
1177.369, 101.9365
1178.453, 78.67578
1179.536, 160.4863
1180.620, 84.41504
1181.704, 37.42285
1182.787, 26.48730
1183.870, 139.6025
1184.953, 70.83105
1186.036, 25.13477
1187.119, 155.4941
1188.201, 91.02344
1189.284, 40.49023
1190.366, 23.07129
1191.448, 17.70898
1192.530, 127.4033
1193.612, 146.2109
1194.694, 51.85449
1195.775, 34.11426
1196.857, 33.15234
1197.938, 150.2598
1199.019, 122.5010
1200.100, 128.8594
1201.181, 54.65820
1202.262, 47.86328
1203.342, 30.46777
1204.423, 38.85449
1205.503, 31.13379
1206.583, 84.63379
1207.663, 63.50684
1208.743, 32.47559
1209.822, 80.47656
1210.902, 119.3867
1211.981, 38.25586
1213.060, 120.0781
1214.139, 198.8584
1215.218, 5.600586
1216.297, 93.27734
1217.376, 53.91016
1218.454, 30.50000
1219.532, 77.03320
1220.611, 44.52246
1221.689, 10.04297
1222.766, 125.3857
1223.844, 2.697266
1224.922, 174.9355
1225.999, 61.13086
1227.076, 48.27246
1228.154, 226.3584
1229.231, 69.40332
1230.307, 153.4268
1231.384, 124.3721
1232.461, 127.2715
1233.537, 97.59473
1234.613, 156.3975
1235.689, 61.33594
1236.765, 100.2266
1237.841, 138.8740
1238.917, 45.51367
1239.992, 283.1299
1241.068, 73.62109
1242.143, 175.1709
1243.218, 33.89062
1244.293, 169.2871
1245.368, 145.5586
1246.442, 204.7988
