##NAMES=Actinolite
##RRUFFID=R040063
##IDEAL CHEMISTRY=Ca_2_(Mg_4.5-2.5_Fe^2+^_0.5-2.5_)_&#931;=5_Si_8_O_22_(OH)_2_
##LOCALITY=Harford County, Maryland, USA
##OWNER=RRUFF
##SOURCE=University of Arizona Mineral Museum
##DESCRIPTION=Mass of green acicular to bladed crystals associated with chlorite
##STATUS=The identification of this mineral has been confirmed by X-ray diffraction and chemical analysis
##URL=rruff.info/R040063
104.0820, 0.0000000E+00
105.3260, 3.143555
106.5700, 1211.568
107.8140, 2421.953
109.0580, 4461.412
110.3020, 6905.596
111.5450, 9870.300
112.7890, 13090.53
114.0320, 16903.39
115.2740, 21138.61
116.5170, 25273.41
117.7590, 28926.51
119.0020, 31735.79
120.2440, 33478.02
121.4850, 33577.97
122.7270, 31678.42
123.9690, 29519.76
125.2100, 26179.86
126.4510, 21773.52
127.6920, 17056.39
128.9320, 12935.17
130.1730, 9491.462
131.4130, 6567.859
132.6530, 4684.025
133.8930, 3132.682
135.1320, 2184.591
136.3720, 1349.551
137.6110, 856.3857
138.8500, 483.9404
140.0890, 233.0801
141.3270, 124.3145
142.5660, 313.3447
143.8040, 418.0771
145.0420, 554.5693
146.2800, 521.5781
147.5180, 459.7500
148.7550, 245.0039
149.9920, 12.84668
151.2290, 275.6777
152.4660, 767.4727
153.7030, 1494.482
154.9390, 1971.716
156.1760, 2593.197
157.4120, 3007.965
158.6470, 3372.049
159.8830, 3483.461
161.1190, 3386.201
162.3540, 3020.268
163.5890, 2771.654
164.8240, 2406.354
166.0580, 2531.359
167.2930, 3159.660
168.5270, 4544.253
169.7610, 6056.130
170.9950, 8271.288
172.2290, 10726.72
173.4620, 13696.42
174.6960, 16225.37
175.9290, 18796.57
177.1620, 20686.03
178.3940, 21622.69
179.6270, 21129.66
180.8590, 19680.11
182.0910, 16619.05
183.3230, 13048.47
184.5550, 9752.311
185.7860, 7000.522
187.0180, 5086.543
188.2490, 3629.216
189.4800, 2380.552
190.7110, 2029.114
191.9410, 1306.174
193.1710, 900.1533
194.4020, 643.3057
195.6310, 467.6328
196.8610, 259.9873
198.0910, 198.7451
199.3200, 130.6094
200.5490, 95.79297
201.7780, 186.9561
203.0070, 229.3662
204.2360, 391.0205
205.4640, 664.9648
206.6920, 885.3252
207.9200, 1130.246
209.1480, 1638.802
210.3760, 2298.887
211.6030, 3229.397
212.8300, 4133.314
214.0570, 5171.502
215.2840, 7249.876
216.5110, 8094.455
217.7370, 9579.254
218.9630, 11491.25
220.1890, 12842.42
221.4150, 14135.73
222.6410, 15173.16
223.8660, 15408.72
225.0920, 15023.40
226.3170, 14612.19
227.5420, 13486.10
228.7660, 12483.12
229.9910, 11555.27
231.2150, 10677.55
232.4390, 9947.993
233.6630, 9272.589
234.8870, 8246.293
236.1100, 7211.100
237.3340, 6191.004
238.5570, 5107.006
239.7800, 4295.101
241.0020, 3468.287
242.2250, 3688.564
243.4470, 3187.930
244.6690, 3121.381
245.8910, 3092.916
247.1130, 3293.533
248.3350, 3464.231
249.5560, 3413.006
250.7770, 3476.857
251.9980, 3308.682
253.2190, 3306.858
254.4400, 2824.637
255.6600, 2780.781
256.8800, 2019.655
258.1010, 1743.763
259.3200, 1470.869
260.5400, 1216.890
261.7590, 981.2568
262.9790, 729.1445
264.1980, 543.8027
265.4170, 285.5771
266.6350, 84.96289
267.8540, 58.95117
269.0720, 79.12891
270.2900, 106.2158
271.5080, 144.5186
272.7260, 316.3281
273.9440, 338.7363
275.1610, 330.2256
276.3780, 266.5645
277.5950, 268.7510
278.8120, 96.79980
280.0280, 37.31934
281.2450, 301.6299
282.4610, 549.7402
283.6770, 806.7930
284.8930, 1176.626
286.1080, 1652.615
287.3240, 2046.372
288.5390, 2352.701
289.7540, 2541.433
290.9690, 2624.996
292.1840, 2695.363
293.3980, 2576.907
294.6120, 2524.869
295.8260, 2463.747
297.0400, 2448.627
298.2540, 2444.738
299.4680, 2480.916
300.6810, 2577.168
301.8940, 2588.492
303.1070, 2567.888
304.3200, 2388.145
305.5320, 2210.988
306.7450, 1946.816
307.9570, 1715.837
309.1690, 1344.824
310.3810, 1084.466
311.5920, 983.3740
312.8040, 737.4170
314.0150, 633.5391
315.2260, 552.4346
316.4370, 497.4795
317.6480, 532.2002
318.8580, 569.7002
320.0680, 694.5889
321.2780, 836.8271
322.4880, 980.6035
323.6980, 1277.785
324.9080, 1625.418
326.1170, 2139.239
327.3260, 2472.497
328.5350, 2970.388
329.7440, 3595.093
330.9520, 3952.758
332.1610, 4352.443
333.3690, 4421.796
334.5770, 4462.871
335.7850, 4483.635
336.9930, 4017.123
338.2000, 3795.447
339.4070, 3542.799
340.6140, 3403.187
341.8210, 3213.608
343.0280, 3094.063
344.2340, 2985.386
345.4410, 2820.087
346.6470, 2810.662
347.8530, 2867.280
349.0590, 2799.938
350.2640, 2797.638
351.4700, 2770.376
352.6750, 2790.278
353.8800, 2740.490
355.0850, 2860.981
356.2890, 2999.444
357.4940, 3341.619
358.6980, 3792.832
359.9020, 4496.170
361.1060, 5217.226
362.3100, 6430.330
363.5130, 7815.328
364.7160, 9093.345
365.9200, 10756.38
367.1220, 12344.43
368.3250, 13730.49
369.5280, 14707.57
370.7300, 15091.66
371.9320, 14416.77
373.1340, 13761.88
374.3360, 12530.01
375.5380, 11134.16
376.7390, 9845.304
377.9410, 9098.463
379.1420, 8826.630
380.3430, 8696.803
381.5430, 9167.986
382.7440, 10201.18
383.9440, 11550.37
385.1440, 13264.57
386.3440, 15609.78
387.5440, 18281.99
388.7440, 21058.20
389.9430, 23972.42
391.1420, 26390.64
392.3410, 28490.87
393.5400, 29229.09
394.7390, 28788.32
395.9370, 27108.56
397.1350, 24737.80
398.3340, 21751.04
399.5310, 17963.25
400.7290, 14730.42
401.9270, 12425.57
403.1240, 10639.67
404.3210, 9355.730
405.5180, 8964.753
406.7150, 8563.737
407.9120, 8648.691
409.1080, 9157.608
410.3040, 9912.498
411.5000, 10383.36
412.6960, 11239.38
413.8920, 11728.99
415.0870, 11887.78
416.2830, 11963.12
417.4780, 11498.71
418.6730, 10673.97
419.8680, 9755.854
421.0620, 8742.817
422.2570, 7400.721
423.4510, 6280.491
424.6450, 5044.298
425.8390, 4431.110
427.0320, 3533.355
428.2260, 2918.742
429.4190, 2348.559
430.6120, 2035.377
431.8050, 1785.200
432.9980, 1560.104
434.1900, 1669.138
435.3830, 1546.323
436.5750, 1490.692
437.7670, 1426.234
438.9590, 1215.931
440.1500, 996.7222
441.3420, 840.5459
442.5330, 655.3623
443.7240, 459.1709
444.9150, 195.9717
446.1060, 124.7637
447.2960, 14.45410
448.4870, 78.69336
449.6770, 91.98926
450.8670, 188.3486
452.0570, 201.4849
453.2460, 273.0381
454.4360, 259.1421
455.6250, 304.8618
456.8140, 172.9536
458.0030, 180.1250
459.1920, 99.65186
460.3800, 160.9761
461.5690, 75.09326
462.7570, 168.3525
463.9450, 56.57715
465.1330, 30.65039
466.3200, 130.8945
467.5080, 75.33545
468.6950, 72.89453
469.8820, 20.67334
471.0690, 95.32324
472.2560, 4.141113
473.4420, 159.2412
474.6280, 57.38428
475.8150, 228.6460
477.0010, 325.4487
478.1860, 449.9619
479.3720, 590.7725
480.5570, 724.8047
481.7430, 903.2192
482.9280, 1048.903
484.1130, 1223.562
485.2970, 1435.192
486.4820, 1532.797
487.6660, 1473.374
488.8500, 1289.924
490.0340, 1113.448
491.2180, 814.9429
492.4020, 526.4092
493.5850, 408.8467
494.7680, 269.2544
495.9520, 205.6309
497.1340, 154.9731
498.3170, 40.27930
499.5000, 80.52734
500.6820, 0.2714840
501.8640, 171.8511
503.0460, 115.9360
504.2280, 286.9785
505.4100, 329.9873
506.5910, 478.9639
507.7720, 613.9077
508.9530, 785.8188
510.1340, 866.6968
511.3150, 871.5415
512.4960, 987.3530
513.6760, 1045.130
514.8560, 1137.874
516.0360, 1005.589
517.2160, 1211.271
518.3960, 1115.948
519.5750, 1257.592
520.7550, 1250.199
521.9340, 1289.777
523.1130, 1405.323
524.2910, 1540.842
525.4700, 1778.345
526.6480, 1770.823
527.8270, 1992.303
529.0050, 2145.770
530.1820, 2289.243
531.3600, 2476.904
532.5380, 2500.165
533.7150, 2624.124
534.8920, 2698.129
536.0690, 2726.638
537.2460, 2782.139
538.4220, 2752.649
539.5990, 2808.121
540.7750, 2708.591
541.9510, 2560.072
543.1270, 2614.535
544.3030, 2512.980
545.4780, 2504.402
546.6540, 2423.788
547.8290, 2405.136
549.0040, 2208.444
550.1790, 2058.729
551.3530, 2097.980
552.5280, 2151.193
553.7020, 2068.367
554.8760, 1805.531
556.0500, 1677.008
557.2240, 1807.439
558.3970, 1867.633
559.5710, 1861.354
560.7440, 1589.484
561.9170, 1660.752
563.0900, 1594.572
564.2630, 1522.800
565.4350, 1642.463
566.6080, 1409.342
567.7800, 1525.893
568.9520, 1502.816
570.1240, 1543.583
571.2950, 1446.000
572.4670, 1477.156
573.6380, 1469.325
574.8090, 1418.452
575.9800, 1478.536
577.1510, 1417.576
578.3210, 1404.572
579.4920, 1435.522
580.6620, 1453.427
581.8320, 1350.284
583.0020, 1230.093
584.1710, 1215.855
585.3410, 1139.570
586.5100, 1091.238
587.6790, 1016.702
588.8480, 865.7056
590.0170, 832.3770
591.1860, 497.0996
592.3540, 354.1719
593.5220, 96.29150
594.6910, 150.7583
595.8590, 12.03662
597.0260, 64.98877
598.1940, 54.05371
599.3610, 86.92432
600.5280, 109.8945
601.6950, 119.4980
602.8620, 152.3774
604.0290, 146.4365
605.1960, 132.9023
606.3620, 119.9614
607.5280, 75.47852
608.6940, 77.66309
609.8600, 33.73242
611.0260, 64.44775
612.1910, 3.840332
613.3560, 5.919434
614.5210, 111.6880
615.6860, 98.42090
616.8510, 135.3555
618.0160, 166.3887
619.1800, 321.3765
620.3440, 400.3257
621.5080, 509.2363
622.6720, 528.1089
623.8360, 690.9434
625.0000, 905.7402
626.1630, 951.4990
627.3260, 1092.219
628.4890, 1270.902
629.6520, 1221.546
630.8150, 1291.153
631.9770, 1294.722
633.1390, 1424.253
634.3020, 1378.747
635.4640, 1639.075
636.6250, 1898.091
637.7870, 2008.820
638.9480, 2377.569
640.1100, 2450.323
641.2710, 2824.759
642.4320, 3069.403
643.5930, 3467.504
644.7530, 3934.923
645.9140, 4412.299
647.0740, 5078.757
648.2340, 5518.811
649.3940, 6358.830
650.5530, 6889.812
651.7130, 7700.758
652.8720, 8534.671
654.0320, 9619.668
655.1910, 11103.30
656.3490, 12477.11
657.5080, 14319.75
658.6670, 16685.48
659.8250, 19913.18
660.9830, 23586.65
662.1410, 28475.42
663.2990, 35333.79
664.4570, 43198.29
665.6140, 53429.91
666.7710, 65919.84
667.9280, 79817.07
669.0850, 95557.41
670.2420, 110720.0
671.3990, 124309.1
672.5550, 133904.2
673.7110, 138064.9
674.8680, 135377.5
676.0230, 125834.8
677.1790, 110923.7
678.3350, 93565.83
679.4900, 76068.41
680.6450, 61081.16
681.8000, 48721.19
682.9550, 38647.49
684.1100, 30931.17
685.2650, 25064.29
686.4190, 20856.13
687.5730, 17179.93
688.7270, 14829.89
689.8810, 13048.92
691.0350, 10900.60
692.1880, 9738.245
693.3420, 8336.848
694.4950, 7485.412
695.6480, 6739.028
696.8010, 5984.515
697.9530, 5402.961
699.1060, 5096.210
700.2580, 4471.577
701.4100, 4224.905
702.5620, 3924.191
703.7140, 3516.437
704.8660, 3525.643
706.0170, 3101.807
707.1680, 2896.932
708.3200, 2649.017
709.4700, 2566.062
710.6210, 2405.068
711.7720, 2310.035
712.9220, 2121.963
714.0730, 2176.853
715.2230, 1990.703
716.3730, 1757.515
717.5220, 1822.290
718.6720, 1832.026
719.8210, 1808.725
720.9710, 1591.387
722.1200, 1595.012
723.2690, 1617.600
724.4170, 1781.151
725.5660, 1827.667
726.7140, 1812.146
727.8630, 1909.597
729.0110, 2011.034
730.1590, 1836.463
731.3060, 1958.570
732.4540, 2068.992
733.6010, 2393.843
734.7480, 2436.990
735.8950, 2782.779
737.0420, 2739.348
738.1890, 3048.173
739.3360, 3395.713
740.4820, 3466.946
741.6280, 3843.245
742.7740, 4261.251
743.9200, 4658.062
745.0660, 5243.646
746.2110, 5803.985
747.3570, 6375.152
748.5020, 6674.045
749.6470, 6956.009
750.7920, 6894.750
751.9360, 6839.141
753.0810, 6233.438
754.2250, 5564.560
755.3690, 4722.092
756.5130, 4242.866
757.6570, 3563.296
758.8010, 3060.756
759.9440, 2457.197
761.0880, 2174.621
762.2310, 1839.026
763.3740, 1594.414
764.5170, 1384.785
765.6590, 1173.138
766.8020, 1147.476
767.9440, 981.7969
769.0860, 971.1006
770.2280, 984.3892
771.3700, 700.6621
772.5120, 698.9194
773.6530, 592.1626
774.7950, 598.3931
775.9360, 487.6123
777.0770, 494.8301
778.2180, 361.0415
779.3580, 401.2632
780.4990, 404.4746
781.6390, 353.6782
782.7790, 301.8696
783.9190, 224.0483
785.0590, 140.2153
786.1990, 252.3706
787.3380, 246.5151
788.4780, 157.6479
789.6170, 123.7700
790.7560, 63.88184
791.8950, 3.982422
793.0330, 83.06250
794.1720, 94.86816
795.3100, 94.13037
796.4480, 98.11914
797.5860, 2.100586
798.7240, 18.06250
799.8620, 17.18408
800.9990, 53.44580
802.1360, 24.18652
803.2740, 127.3379
804.4110, 69.57178
805.5470, 152.8574
806.6840, 62.23730
807.8210, 151.7861
808.9570, 139.3423
810.0930, 243.7822
811.2290, 180.5220
812.3650, 99.36523
813.5010, 174.2695
814.6360, 27.72900
815.7710, 125.2759
816.9070, 193.3511
818.0420, 72.53174
819.1760, 78.75293
820.3110, 53.01709
821.4460, 2.310059
822.5800, 55.39160
823.7140, 75.09326
824.8480, 66.20508
825.9820, 6.534180
827.1160, 11.13232
828.2490, 17.79980
829.3820, 73.46875
830.5160, 11.13965
831.6490, 53.18701
832.7820, 68.46680
833.9140, 107.1250
835.0470, 27.21387
836.1790, 76.44141
837.3110, 135.1006
838.4430, 193.7646
839.5750, 92.43359
840.7070, 235.1074
841.8380, 190.7881
842.9700, 291.4746
844.1010, 273.1670
845.2320, 336.8672
846.3630, 311.6230
847.4940, 310.1152
848.6240, 320.0107
849.7550, 258.7412
850.8850, 430.4805
852.0150, 376.2275
853.1450, 232.9854
854.2750, 503.7520
855.4040, 281.5283
856.5340, 302.3145
857.6630, 344.1113
858.7920, 403.9199
859.9210, 397.7393
861.0500, 413.5693
862.1780, 473.4111
863.3070, 481.2656
864.4350, 460.1328
865.5630, 457.4209
866.6910, 347.9043
867.8190, 393.8096
868.9460, 260.7422
870.0740, 221.6963
871.2010, 359.6953
872.3280, 342.7529
873.4550, 263.8623
874.5820, 307.0342
875.7090, 296.2715
876.8350, 400.5771
877.9610, 330.9590
879.0880, 405.4141
880.2140, 478.9395
881.3390, 377.5312
882.4650, 379.1787
883.5910, 449.8838
884.7160, 421.6338
885.8410, 557.4365
886.9660, 570.2764
888.0910, 472.1514
889.2160, 554.0479
890.3400, 519.9658
891.4650, 618.9023
892.5890, 712.8594
893.7130, 644.8350
894.8370, 675.8271
895.9600, 901.8398
897.0840, 725.8672
898.2070, 698.9150
899.3310, 849.9805
900.4540, 809.0625
901.5770, 865.1689
902.6990, 947.2949
903.8220, 994.4365
904.9440, 990.5977
906.0670, 1126.776
907.1890, 1046.975
908.3110, 999.1914
909.4320, 1111.435
910.5540, 1221.695
911.6750, 1272.580
912.7970, 1371.275
913.9180, 1491.605
915.0390, 1536.961
916.1600, 1701.251
917.2800, 2101.809
918.4010, 2238.303
919.5210, 2543.849
920.6410, 3054.424
921.7610, 3405.021
922.8810, 4209.639
924.0010, 4805.279
925.1200, 6082.975
926.2400, 6473.689
927.3590, 7312.574
928.4780, 8032.416
929.5970, 8828.442
930.7160, 9078.361
931.8340, 9077.306
932.9530, 8710.472
934.0710, 8155.332
935.1890, 7157.605
936.3070, 6216.750
937.4250, 5417.803
938.5420, 4704.458
939.6600, 4084.536
940.7770, 3595.260
941.8940, 3134.379
943.0110, 2832.990
944.1280, 2560.506
945.2450, 2456.592
946.3610, 2250.776
947.4770, 2124.189
948.5940, 1944.029
949.7100, 1779.936
950.8250, 1563.821
951.9410, 1459.822
953.0570, 1350.535
954.1720, 1254.630
955.2870, 1165.062
956.4020, 1020.672
957.5170, 973.5664
958.6320, 778.4971
959.7470, 763.2705
960.8610, 714.9883
961.9750, 662.0635
963.0890, 692.1709
964.2030, 552.3164
965.3170, 532.4932
966.4310, 488.6221
967.5440, 594.8750
968.6570, 341.1631
969.7710, 356.6426
970.8840, 520.0029
971.9960, 595.3965
973.1090, 477.8242
974.2220, 441.2852
975.3340, 459.7812
976.4460, 387.3105
977.5580, 446.1260
978.6700, 419.9824
979.7820, 507.1377
980.8930, 421.8115
982.0050, 363.5205
983.1160, 372.2627
984.2270, 526.0371
985.3380, 367.8467
986.4490, 506.6865
987.5600, 489.5615
988.6700, 576.4688
989.7800, 462.4072
990.8900, 498.3760
992.0000, 585.3779
993.1100, 642.4102
994.2200, 564.4736
995.3300, 665.5674
996.4390, 707.6934
997.5480, 877.8486
998.6570, 805.0361
999.7660, 1010.254
1000.875, 1056.503
1001.983, 1381.782
1003.092, 1495.093
1004.200, 1521.433
1005.308, 1438.803
1006.416, 1380.204
1007.524, 1568.634
1008.632, 1606.092
1009.739, 1774.578
1010.846, 1815.095
1011.954, 1979.499
1013.061, 2088.209
1014.167, 2292.808
1015.274, 2538.434
1016.381, 2687.085
1017.487, 2916.764
1018.593, 3393.467
1019.699, 3812.197
1020.805, 4450.953
1021.911, 5002.734
1023.017, 5912.541
1024.122, 7681.371
1025.227, 8202.187
1026.333, 9370.755
1027.438, 9678.752
1028.542, 10232.35
1029.647, 10208.30
1030.752, 9800.707
1031.856, 9101.015
1032.960, 8684.038
1034.064, 6784.648
1035.168, 5811.756
1036.272, 4949.995
1037.375, 4647.191
1038.479, 4470.571
1039.582, 3989.910
1040.685, 3213.214
1041.788, 3057.766
1042.891, 2862.053
1043.994, 3048.303
1045.096, 2911.855
1046.198, 3099.517
1047.301, 3524.177
1048.403, 3749.086
1049.505, 4330.656
1050.606, 4883.546
1051.708, 5577.885
1052.809, 6293.471
1053.911, 7031.318
1055.012, 7930.016
1056.113, 8738.826
1057.213, 9323.511
1058.314, 9705.017
1059.414, 9719.980
1060.515, 9794.633
1061.615, 9466.242
1062.715, 9366.595
1063.815, 9251.683
1064.915, 9347.730
1066.014, 9678.438
1067.114, 10055.09
1068.213, 10255.79
1069.312, 9889.316
1070.411, 9318.558
1071.510, 8484.947
1072.608, 7705.370
1073.707, 6686.711
1074.805, 5654.434
1075.903, 5191.393
1077.001, 4548.859
1078.099, 3909.367
1079.197, 3591.060
1080.294, 3077.344
1081.392, 3104.411
1082.489, 2681.389
1083.586, 2508.505
1084.683, 2406.281
1085.780, 2175.494
1086.877, 1825.410
1087.973, 1906.358
1089.069, 1917.150
1090.166, 1861.534
1091.262, 1540.716
1092.358, 1567.204
1093.453, 1454.384
1094.549, 1332.286
1095.644, 1402.587
1096.739, 1119.367
1097.835, 1187.539
1098.930, 1114.657
1100.024, 975.9600
1101.119, 973.1465
1102.214, 1093.957
1103.308, 1001.694
1104.402, 1107.563
1105.496, 895.6133
1106.590, 962.5811
1107.684, 1084.537
1108.777, 951.4824
1109.871, 1134.224
1110.964, 935.6826
1112.057, 1010.143
1113.150, 842.5557
1114.243, 734.2666
1115.336, 828.0908
1116.428, 625.0518
1117.521, 590.5000
1118.613, 647.7510
1119.705, 667.2246
1120.797, 608.6758
1121.889, 543.1201
1122.980, 583.5605
1124.072, 500.9932
1125.163, 464.4189
1126.254, 403.3477
1127.345, 548.3154
1128.436, 622.9961
1129.527, 631.1680
1130.617, 373.6611
1131.708, 459.4570
1132.798, 407.5195
1133.888, 349.9346
1134.978, 483.7539
1136.068, 264.8447
1137.157, 395.6240
1138.247, 386.7881
1139.336, 441.8438
1140.425, 358.5508
1141.514, 317.9746
1142.603, 415.7686
1143.692, 436.9287
1144.781, 337.6641
1145.869, 396.7266
1146.957, 66.58398
1148.046, 65.60156
1149.134, 149.8066
1150.221, 163.9971
1151.309, 194.1738
1152.397, 184.4502
1153.484, 172.4805
1154.571, 95.61133
1155.658, 83.72852
1156.745, 20.17090
1157.832, 20.90723
1158.919, 19.03320
1160.005, 222.0029
1161.092, 8.978516
1162.178, 1.981445
1163.264, 95.99512
1164.350, 36.04590
1165.435, 58.87988
1166.521, 36.80176
1167.606, 55.70898
1168.692, 20.59766
1169.777, 39.46289
1170.862, 56.30859
1171.947, 23.86719
1173.031, 77.92285
1174.116, 126.6924
1175.200, 31.44238
1176.285, 34.83105
1177.369, 17.15039
1178.453, 83.13770
1179.536, 92.00391
1180.620, 95.43066
1181.704, 101.0127
1182.787, 23.67773
1183.870, 25.61230
1184.953, 67.87500
1186.036, 49.11133
1187.119, 114.6738
1188.201, 62.55762
1189.284, 36.50977
1190.366, 157.5176
1191.448, 91.64746
1192.530, 11.13770
1193.612, 38.88867
1194.694, 53.61035
1195.775, 7.697266
1196.857, 85.05078
1197.938, 12.50781
1199.019, 127.9697
1200.100, 47.44141
1201.181, 37.82129
1202.262, 57.83203
1203.342, 70.56250
1204.423, 43.37695
1205.503, 61.26172
1206.583, 67.71973
1207.663, 50.28125
1208.743, 67.41113
1209.822, 27.62793
1210.902, 38.08789
1211.981, 12.76562
1213.060, 41.27637
1214.139, 13.77930
1215.218, 43.75195
1216.297, 36.24316
1217.376, 48.69141
1218.454, 43.81641
1219.532, 38.47168
1220.611, 26.79883
1221.689, 44.91992
1222.766, 13.72168
1223.844, 153.4092
1224.922, 42.50488
1225.999, 130.6934
1227.076, 17.70996
1228.154, 86.12109
1229.231, 141.0459
1230.307, 75.10840
1231.384, 42.95605
1232.461, 163.8203
1233.537, 133.6680
