##NAMES=Actinolite
##RRUFFID=R040063
##IDEAL CHEMISTRY=Ca_2_(Mg_4.5-2.5_Fe^2+^_0.5-2.5_)_&#931;=5_Si_8_O_22_(OH)_2_
##LOCALITY=Harford County, Maryland, USA
##OWNER=RRUFF
##SOURCE=University of Arizona Mineral Museum
##DESCRIPTION=Mass of green acicular to bladed crystals associated with chlorite
##STATUS=The identification of this mineral has been confirmed by X-ray diffraction and chemical analysis
##URL=rruff.info/R040063
99.54712, 36.04333
101.4756, 39.82998
103.4041, 45.87225
105.3325, 50.77647
107.2610, 69.80628
109.1895, 103.7888
111.1179, 152.1949
113.0464, 225.8590
114.9749, 356.1400
116.9033, 492.1578
118.8318, 598.3763
120.7603, 676.6865
122.6887, 727.9243
124.6172, 750.4398
126.5457, 733.3105
128.4741, 723.5175
130.4026, 718.2394
132.3311, 721.5336
134.2595, 736.3323
136.1880, 773.1518
138.1165, 812.8427
140.0449, 846.5547
141.9734, 869.0354
143.9019, 895.5067
145.8303, 919.7307
147.7588, 945.8619
149.6873, 998.1187
151.6157, 1111.140
153.5442, 1233.760
155.4727, 1320.761
157.4011, 1368.183
159.3296, 1397.160
161.2581, 1399.614
163.1865, 1354.242
165.1150, 1375.631
167.0435, 1479.659
168.9719, 1648.481
170.9004, 1852.434
172.8289, 2186.134
174.7573, 2440.627
176.6858, 2533.293
178.6143, 2326.195
180.5427, 2120.416
182.4712, 1897.265
184.3997, 1673.959
186.3281, 1493.648
188.2566, 1382.528
190.1851, 1306.155
192.1135, 1251.747
194.0420, 1221.296
195.9705, 1207.085
197.8989, 1207.027
199.8274, 1219.215
201.7559, 1256.619
203.6843, 1315.811
205.6128, 1399.755
207.5413, 1512.809
209.4697, 1645.996
211.3982, 1817.636
213.3267, 2047.036
215.2551, 2371.177
217.1836, 2630.854
219.1121, 2830.544
221.0405, 2961.167
222.9690, 3027.221
224.8975, 3018.609
226.8259, 2952.349
228.7544, 2838.605
230.6829, 2646.903
232.6113, 2448.009
234.5398, 2210.012
236.4683, 1965.668
238.3967, 1778.120
240.3252, 1684.236
242.2537, 1629.720
244.1821, 1597.592
246.1106, 1606.734
248.0391, 1602.664
249.9675, 1571.368
251.8960, 1519.780
253.8245, 1466.534
255.7529, 1408.421
257.6814, 1352.108
259.6099, 1302.355
261.5384, 1258.438
263.4668, 1220.843
265.3953, 1189.912
267.3238, 1164.978
269.2522, 1146.970
271.1807, 1135.973
273.1092, 1131.012
275.0376, 1130.864
276.9661, 1132.501
278.8946, 1144.637
280.8230, 1172.987
282.7515, 1219.547
284.6800, 1260.037
286.6084, 1295.854
288.5369, 1325.279
290.4654, 1346.807
292.3938, 1358.525
294.3223, 1366.522
296.2508, 1373.012
298.1792, 1378.015
300.1077, 1380.323
302.0362, 1381.916
303.9646, 1379.865
305.8931, 1371.660
307.8216, 1352.235
309.7500, 1335.222
311.6785, 1324.333
313.6070, 1320.376
315.5354, 1317.169
317.4639, 1307.302
319.3924, 1302.148
321.3208, 1310.387
323.2493, 1341.652
325.1778, 1373.954
327.1062, 1405.544
329.0347, 1436.221
330.9632, 1458.499
332.8916, 1466.329
334.8201, 1469.415
336.7486, 1475.042
338.6770, 1475.704
340.6055, 1489.711
342.5340, 1526.746
344.4624, 1584.879
346.3909, 1636.026
348.3194, 1670.467
350.2478, 1701.726
352.1763, 1738.664
354.1048, 1753.330
356.0332, 1808.601
357.9617, 1921.697
359.8902, 2086.598
361.8186, 2270.349
363.7471, 2546.918
365.6756, 2781.009
367.6040, 2895.032
369.5325, 2791.521
371.4610, 2665.780
373.3894, 2473.197
375.3179, 2255.421
377.2464, 2116.255
379.1748, 2078.136
381.1033, 2116.296
383.0318, 2227.497
384.9602, 2482.656
386.8887, 2698.752
388.8172, 2920.585
390.7456, 3088.238
392.6741, 3110.031
394.6026, 2863.506
396.5310, 2583.428
398.4595, 2337.515
400.3880, 2122.064
402.3164, 1974.595
404.2449, 1930.101
406.1734, 1946.620
408.1018, 1975.054
410.0303, 2044.342
411.9588, 2085.471
413.8872, 2078.781
415.8157, 2017.119
417.7442, 1938.886
419.6726, 1823.371
421.6011, 1702.798
423.5296, 1599.468
425.4580, 1512.521
427.3865, 1448.151
429.3150, 1416.445
431.2434, 1413.124
433.1719, 1402.181
435.1004, 1381.791
437.0288, 1355.139
438.9573, 1323.275
440.8858, 1281.884
442.8142, 1246.876
444.7427, 1218.458
446.6712, 1197.627
448.5996, 1186.162
450.5281, 1189.809
452.4566, 1194.091
454.3851, 1192.663
456.3135, 1183.899
458.2420, 1179.029
460.1705, 1179.749
462.0989, 1183.242
464.0274, 1186.504
465.9559, 1188.728
467.8843, 1192.029
469.8128, 1196.392
471.7413, 1201.693
473.6697, 1209.289
475.5982, 1218.497
477.5267, 1230.165
479.4551, 1248.458
481.3836, 1275.148
483.3121, 1292.675
485.2405, 1291.707
487.1690, 1280.888
489.0975, 1271.527
491.0259, 1256.890
492.9544, 1250.861
494.8829, 1256.855
496.8113, 1274.635
498.7398, 1302.103
500.6683, 1343.118
502.5967, 1391.369
504.5252, 1443.484
506.4537, 1511.625
508.3821, 1565.516
510.3106, 1603.407
512.2391, 1624.918
514.1675, 1632.857
516.0960, 1617.514
518.0245, 1603.297
519.9529, 1601.690
521.8814, 1617.490
523.8099, 1622.980
525.7383, 1616.377
527.6668, 1602.271
529.5953, 1583.527
531.5237, 1559.327
533.4522, 1533.380
535.3807, 1499.490
537.3091, 1463.072
539.2376, 1442.307
541.1661, 1454.105
543.0945, 1463.131
545.0230, 1453.991
546.9515, 1429.247
548.8799, 1408.459
550.8084, 1398.363
552.7369, 1391.800
554.6653, 1384.385
556.5938, 1373.184
558.5223, 1365.598
560.4507, 1363.142
562.3792, 1364.423
564.3077, 1366.782
566.2361, 1372.295
568.1646, 1375.083
570.0931, 1372.274
572.0215, 1362.979
573.9500, 1355.426
575.8785, 1351.682
577.8069, 1348.088
579.7354, 1343.593
581.6639, 1339.351
583.5923, 1329.225
585.5208, 1306.999
587.4493, 1279.694
589.3777, 1257.487
591.3062, 1242.314
593.2347, 1229.715
595.1631, 1218.227
597.0916, 1208.569
599.0201, 1203.401
600.9485, 1205.112
602.8770, 1209.345
604.8055, 1214.413
606.7339, 1220.906
608.6624, 1227.106
610.5909, 1234.479
612.5193, 1240.934
614.4478, 1242.898
616.3763, 1237.411
618.3047, 1237.771
620.2332, 1250.771
622.1617, 1271.468
624.0901, 1288.712
626.0186, 1293.176
627.9471, 1304.279
629.8755, 1330.308
631.8040, 1368.968
633.7325, 1407.350
635.6609, 1438.418
637.5894, 1475.836
639.5179, 1524.639
641.4464, 1581.885
643.3748, 1659.555
645.3033, 1755.082
647.2318, 1870.249
649.1602, 1995.322
651.0887, 2110.381
653.0172, 2297.638
654.9456, 2531.966
656.8741, 2853.300
658.8026, 3368.519
660.7310, 4057.497
662.6595, 4970.682
664.5880, 6377.941
666.5164, 8116.327
668.4449, 9406.177
670.3734, 10314.35
672.3018, 10581.50
674.2303, 10027.54
676.1588, 8425.386
678.0872, 6972.143
680.0157, 5613.017
681.9442, 4440.099
683.8726, 3567.699
685.8011, 3002.076
687.7296, 2570.311
689.6580, 2300.469
691.5865, 2128.601
693.5150, 1989.137
695.4434, 1896.706
697.3719, 1817.181
699.3004, 1745.835
701.2288, 1684.172
703.1573, 1635.346
705.0858, 1603.279
707.0142, 1576.828
708.9427, 1551.716
710.8712, 1528.612
712.7996, 1511.657
714.7281, 1501.319
716.6566, 1497.583
718.5850, 1501.223
720.5135, 1513.191
722.4420, 1529.124
724.3704, 1541.316
726.2989, 1563.906
728.2274, 1606.153
730.1558, 1669.987
732.0843, 1736.537
734.0128, 1808.943
735.9412, 1878.995
737.8697, 1940.303
739.7982, 1998.061
741.7266, 2036.234
743.6551, 2049.386
745.5836, 2042.363
747.5120, 2024.673
749.4405, 1999.904
751.3690, 1954.986
753.2974, 1871.724
755.2259, 1767.711
757.1544, 1688.479
759.0828, 1646.987
761.0113, 1612.735
762.9398, 1579.149
764.8682, 1548.465
766.7967, 1526.891
768.7252, 1518.996
770.6536, 1514.400
772.5821, 1509.851
774.5106, 1505.388
776.4390, 1500.108
778.3675, 1493.461
780.2960, 1486.718
782.2244, 1479.287
784.1529, 1471.491
786.0814, 1467.294
788.0098, 1467.967
789.9383, 1471.808
791.8668, 1480.053
793.7952, 1495.679
795.7237, 1501.088
797.6522, 1483.382
799.5806, 1465.545
801.5091, 1465.266
803.4376, 1485.254
805.3660, 1503.079
807.2945, 1514.945
809.2230, 1523.882
811.1514, 1532.872
813.0799, 1542.966
815.0084, 1547.887
816.9368, 1542.564
818.8653, 1534.700
820.7938, 1531.897
822.7223, 1536.000
824.6508, 1541.815
826.5792, 1552.085
828.5077, 1562.536
830.4362, 1568.798
832.3646, 1569.892
834.2931, 1569.650
836.2216, 1565.449
838.1500, 1561.456
840.0785, 1563.233
842.0070, 1574.402
843.9354, 1586.912
845.8639, 1603.609
847.7924, 1620.489
849.7208, 1631.928
851.6493, 1637.094
853.5778, 1640.007
855.5062, 1639.508
857.4347, 1637.948
859.3632, 1639.016
861.2916, 1643.032
863.2201, 1648.957
865.1486, 1657.655
867.0770, 1667.830
869.0055, 1676.804
870.9340, 1683.534
872.8624, 1692.280
874.7909, 1705.502
876.7194, 1721.724
878.6478, 1739.049
880.5763, 1760.356
882.5048, 1777.597
884.4332, 1786.657
886.3617, 1791.152
888.2902, 1798.633
890.2186, 1810.507
892.1471, 1822.255
894.0756, 1832.766
896.0040, 1842.603
897.9325, 1852.408
899.8610, 1861.310
901.7894, 1872.532
903.7179, 1887.474
905.6464, 1904.928
907.5748, 1922.968
909.5033, 1935.478
911.4318, 1956.358
913.3602, 1982.043
915.2887, 2018.342
917.2172, 2075.075
919.1456, 2155.289
921.0741, 2242.804
923.0026, 2351.603
924.9310, 2457.190
926.8595, 2532.652
928.7880, 2582.668
930.7164, 2587.312
932.6449, 2520.443
934.5734, 2421.716
936.5018, 2337.684
938.4303, 2268.319
940.3588, 2211.502
942.2872, 2171.290
944.2157, 2142.038
946.1442, 2119.803
948.0726, 2106.003
950.0011, 2090.717
951.9296, 2067.861
953.8580, 2045.610
955.7865, 2029.841
957.7150, 2022.189
959.6434, 2017.338
961.5719, 2017.828
963.5004, 2018.785
965.4288, 2014.622
967.3573, 2005.191
969.2858, 2003.381
971.2142, 2017.715
973.1427, 2032.913
975.0712, 2041.046
976.9996, 2042.009
978.9281, 2039.871
980.8566, 2029.454
982.7850, 2021.277
984.7135, 2018.205
986.6420, 2020.588
988.5704, 2030.943
990.4989, 2057.310
992.4274, 2083.091
994.3558, 2100.026
996.2843, 2112.269
998.2128, 2129.673
1000.141, 2148.513
1002.070, 2180.825
1003.998, 2237.346
1005.927, 2308.586
1007.855, 2371.028
1009.784, 2401.940
1011.712, 2453.022
1013.641, 2523.158
1015.569, 2618.477
1017.497, 2756.626
1019.426, 2947.241
1021.354, 3139.961
1023.283, 3383.652
1025.211, 3585.451
1027.140, 3669.855
1029.068, 3628.919
1030.997, 3523.281
1032.925, 3294.847
1034.854, 3059.215
1036.782, 2878.896
1038.711, 2757.318
1040.639, 2681.000
1042.568, 2650.012
1044.496, 2658.932
1046.424, 2714.529
1048.353, 2813.698
1050.281, 2929.552
1052.210, 3082.355
1054.138, 3219.007
1056.067, 3318.811
1057.995, 3386.534
1059.924, 3428.575
1061.852, 3440.471
1063.781, 3430.136
1065.709, 3407.208
1067.638, 3361.002
1069.566, 3272.181
1071.495, 3109.377
1073.423, 2959.655
1075.351, 2819.621
1077.280, 2699.850
1079.208, 2616.781
1081.137, 2569.880
1083.065, 2521.787
1084.994, 2454.792
1086.922, 2399.875
1088.851, 2378.454
1090.779, 2388.760
1092.708, 2389.448
1094.636, 2365.930
1096.565, 2348.339
1098.493, 2348.397
1100.422, 2360.804
1102.350, 2368.113
1104.278, 2366.384
1106.207, 2365.600
1108.135, 2366.475
1110.064, 2368.844
1111.992, 2372.838
1113.921, 2378.472
1115.849, 2383.549
1117.778, 2391.727
1119.706, 2395.280
1121.635, 2387.021
1123.563, 2365.993
1125.492, 2351.372
1127.420, 2346.393
1129.349, 2346.029
1131.277, 2351.456
1133.205, 2360.996
1135.134, 2366.885
1137.062, 2369.168
1138.991, 2368.226
1140.919, 2359.671
1142.848, 2350.033
1144.776, 2349.324
1146.705, 2359.258
1148.633, 2364.438
1150.562, 2357.228
1152.490, 2348.403
1154.419, 2343.739
1156.347, 2343.218
1158.276, 2347.190
1160.204, 2362.964
1162.132, 2375.021
1164.061, 2372.455
1165.989, 2362.452
1167.918, 2368.516
1169.846, 2410.303
1171.775, 2437.672
1173.703, 2433.755
1175.632, 2419.656
1177.560, 2418.705
1179.489, 2430.985
1181.417, 2439.659
1183.346, 2439.696
1185.274, 2438.350
1187.203, 2438.273
1189.131, 2439.993
1191.059, 2446.722
1192.988, 2465.849
1194.916, 2478.460
1196.845, 2471.656
1198.773, 2459.998
1200.702, 2465.362
1202.630, 2504.058
1204.559, 2527.238
1206.487, 2520.592
1208.416, 2510.049
1210.344, 2512.087
1212.273, 2525.770
1214.201, 2537.694
1216.130, 2547.136
1218.058, 2556.731
1219.986, 2569.919
1221.915, 2583.836
1223.843, 2594.312
1225.772, 2601.299
1227.700, 2605.920
1229.629, 2602.854
1231.557, 2601.979
1233.486, 2609.849
1235.414, 2626.769
1237.343, 2643.253
1239.271, 2661.036
1241.200, 2675.894
1243.128, 2687.368
1245.057, 2694.758
1246.985, 2695.493
1248.913, 2684.021
1250.842, 2679.718
1252.770, 2689.910
1254.699, 2702.725
1256.627, 2710.490
1258.556, 2714.563
1260.484, 2720.484
1262.413, 2730.321
1264.341, 2740.151
1266.270, 2747.437
1268.198, 2754.305
1270.127, 2763.670
1272.055, 2775.780
1273.984, 2786.414
1275.912, 2794.156
1277.840, 2800.223
1279.769, 2804.441
1281.697, 2807.301
1283.626, 2811.720
1285.554, 2818.793
1287.483, 2826.942
1289.411, 2834.798
1291.340, 2844.387
1293.268, 2858.513
1295.197, 2877.766
1297.125, 2895.763
1299.054, 2917.977
1300.982, 2932.406
1302.911, 2928.472
1304.839, 2914.925
1306.767, 2907.786
1308.696, 2906.519
1310.624, 2916.616
1312.553, 2953.507
1314.481, 2988.163
1316.410, 2996.031
1318.338, 2980.280
1320.267, 2976.820
1322.195, 2993.162
1324.124, 3011.769
1326.052, 3036.553
1327.981, 3056.933
1329.909, 3057.405
1331.838, 3027.061
1333.766, 3013.521
1335.694, 3032.832
1337.623, 3049.489
1339.551, 3044.935
1341.480, 3027.759
1343.408, 3021.066
1345.337, 3026.259
1347.265, 3035.376
1349.194, 3053.300
1351.122, 3069.341
1353.051, 3072.797
1354.979, 3068.013
1356.908, 3075.030
1358.836, 3104.383
1360.765, 3121.531
1362.693, 3099.766
1364.621, 3073.772
1366.550, 3077.966
1368.478, 3110.791
1370.407, 3130.821
1372.335, 3124.411
1374.264, 3119.989
1376.192, 3127.327
1378.121, 3141.105
1380.049, 3154.858
1381.978, 3169.230
1383.906, 3178.537
1385.835, 3178.937
1387.763, 3178.114
1389.692, 3179.724
1391.620, 3182.690
1393.548, 3183.894
1395.477, 3182.645
1397.405, 3182.884
1399.334, 3187.028
1401.262, 3190.940
1403.191, 3189.270
1405.119, 3184.871
1407.048, 3190.370
1408.976, 3209.418
1410.905, 3227.176
1412.833, 3243.589
1414.762, 3255.485
1416.690, 3257.075
1418.619, 3251.808
1420.547, 3253.340
1422.475, 3264.347
1424.404, 3276.206
1426.332, 3284.295
1428.261, 3293.288
1430.189, 3309.500
1432.118, 3330.365
1434.046, 3339.433
1435.975, 3327.821
1437.903, 3321.194
1439.832, 3338.162
1441.760, 3356.253
1443.689, 3352.575
1445.617, 3327.330
1447.546, 3317.095
1449.474, 3335.862
1451.402, 3350.556
1453.331, 3347.086
1455.259, 3340.422
1457.188, 3347.258
1459.116, 3369.822
1461.045, 3383.566
1462.973, 3377.420
1464.902, 3375.640
1466.830, 3388.628
1468.759, 3404.345
1470.687, 3408.633
1472.616, 3400.191
1474.544, 3395.790
1476.473, 3401.175
1478.401, 3404.116
1480.329, 3395.527
1482.258, 3388.006
1484.186, 3398.932
1486.115, 3429.048
1488.043, 3448.390
1489.972, 3452.873
1491.900, 3451.151
1493.829, 3438.640
1495.757, 3425.147
1497.686, 3421.953
1499.614, 3428.055
1501.543, 3434.506
1503.471, 3440.565
1505.400, 3448.834
1507.328, 3465.483
1509.256, 3481.016
1511.185, 3483.450
1513.113, 3475.801
1515.042, 3476.904
1516.970, 3489.980
1518.899, 3503.948
1520.827, 3513.892
1522.756, 3523.906
1524.684, 3540.844
1526.613, 3561.552
1528.541, 3569.240
1530.470, 3558.073
1532.398, 3552.776
1534.327, 3568.492
1536.255, 3583.865
1538.183, 3583.354
1540.112, 3571.507
1542.040, 3567.601
1543.969, 3573.842
1545.897, 3579.274
1547.826, 3580.248
1549.754, 3581.587
1551.683, 3584.636
1553.611, 3589.890
1555.540, 3599.175
1557.468, 3614.262
1559.397, 3627.016
1561.325, 3634.704
1563.254, 3641.802
1565.182, 3654.118
1567.111, 3664.053
1569.039, 3657.903
1570.968, 3629.707
1572.896, 3614.329
1574.824, 3622.320
1576.753, 3630.488
1578.681, 3636.510
1580.610, 3639.651
1582.538, 3635.220
1584.467, 3623.318
1586.395, 3624.878
1588.324, 3648.526
1590.252, 3672.436
1592.181, 3697.970
1594.109, 3719.893
1596.038, 3736.594
1597.966, 3747.217
1599.895, 3747.882
1601.823, 3731.965
1603.751, 3720.540
1605.680, 3716.506
1607.608, 3714.382
1609.537, 3708.581
1611.465, 3704.561
1613.394, 3712.706
1615.322, 3735.553
1617.251, 3752.490
1619.179, 3762.022
1621.108, 3765.736
1623.036, 3760.011
1624.965, 3751.450
1626.893, 3746.644
1628.822, 3745.517
1630.750, 3743.509
1632.678, 3743.676
1634.607, 3739.605
1636.535, 3724.307
1638.464, 3712.703
1640.392, 3713.138
1642.321, 3721.561
1644.249, 3730.550
1646.178, 3739.332
1648.106, 3748.237
1650.035, 3762.012
1651.963, 3768.754
1653.892, 3759.995
1655.820, 3747.838
1657.749, 3745.716
1659.677, 3752.286
1661.605, 3751.790
1663.534, 3738.039
1665.462, 3733.701
1667.391, 3749.024
1669.319, 3765.194
1671.248, 3770.845
1673.176, 3771.630
1675.105, 3778.945
1677.033, 3794.353
1678.962, 3799.425
1680.890, 3780.188
1682.819, 3769.482
1684.747, 3776.771
1686.676, 3792.062
1688.604, 3814.483
1690.532, 3839.320
1692.461, 3845.739
1694.389, 3822.019
1696.318, 3814.130
1698.246, 3840.712
1700.175, 3861.310
1702.103, 3861.819
1704.032, 3849.959
1705.960, 3827.957
1707.889, 3797.483
1709.817, 3787.584
1711.746, 3817.224
1713.674, 3833.302
1715.603, 3819.763
1717.531, 3806.436
1719.459, 3807.652
1721.388, 3817.708
1723.316, 3829.943
1725.245, 3845.522
1727.173, 3852.403
1729.102, 3841.014
1731.030, 3836.262
1732.959, 3850.804
1734.887, 3862.726
1736.816, 3852.211
1738.744, 3831.025
1740.673, 3825.938
1742.601, 3840.390
1744.530, 3854.523
1746.458, 3871.927
1748.386, 3883.147
1750.315, 3884.483
1752.243, 3880.911
1754.172, 3870.844
1756.100, 3859.412
1758.029, 3863.491
1759.957, 3892.002
1761.886, 3905.205
1763.814, 3888.218
1765.743, 3877.949
1767.671, 3886.758
1769.600, 3900.902
1771.528, 3912.835
1773.457, 3921.541
1775.385, 3922.227
1777.313, 3911.699
1779.242, 3906.309
1781.170, 3906.090
1783.099, 3911.025
1785.027, 3926.815
1786.956, 3941.588
1788.884, 3949.836
1790.813, 3950.822
1792.741, 3937.570
1794.670, 3908.174
1796.598, 3896.801
1798.527, 3919.366
1800.455, 3933.338
1802.384, 3915.088
1804.312, 3895.128
1806.240, 3893.093
1808.169, 3903.857
1810.097, 3920.921
1812.026, 3944.136
1813.954, 3953.730
1815.883, 3939.430
1817.811, 3933.807
1819.740, 3957.496
1821.668, 3979.111
1823.597, 3970.637
1825.525, 3950.604
1827.454, 3952.743
1829.382, 3974.767
1831.311, 3981.826
1833.239, 3966.508
1835.167, 3954.217
1837.096, 3947.921
1839.024, 3949.726
1840.953, 3970.916
1842.881, 3993.572
1844.810, 3992.455
1846.738, 3969.893
1848.667, 3949.462
1850.595, 3924.152
1852.524, 3918.957
1854.452, 3964.133
1856.381, 3992.180
1858.309, 3966.228
1860.238, 3930.642
1862.166, 3925.650
1864.094, 3942.678
1866.023, 3953.453
1867.951, 3955.259
1869.880, 3958.129
1871.808, 3959.649
1873.737, 3964.093
1875.665, 3970.031
1877.594, 3980.605
1879.522, 4006.280
1881.451, 4033.095
1883.379, 4036.338
1885.308, 4017.899
1887.236, 4008.293
1889.165, 4011.928
1891.093, 4008.214
1893.021, 3985.836
1894.950, 3968.954
1896.878, 3971.100
1898.807, 3979.529
1900.735, 3989.719
1902.664, 3997.127
1904.592, 3986.351
1906.521, 3957.685
1908.449, 3944.008
1910.378, 3952.418
1912.306, 3965.152
1914.235, 3980.451
1916.163, 3995.272
1918.092, 4010.762
1920.020, 4022.276
1921.948, 4023.854
1923.877, 4016.138
1925.805, 4002.803
1927.734, 3979.089
1929.662, 3964.227
1931.591, 3960.900
1933.519, 3963.182
1935.448, 3976.207
1937.376, 3988.581
1939.305, 3992.812
1941.233, 3993.013
1943.162, 3996.020
1945.090, 4001.044
1947.019, 3996.885
1948.947, 3978.484
1950.875, 3973.343
1952.804, 3992.537
1954.732, 4008.700
1956.661, 4010.805
1958.589, 4010.675
1960.518, 4017.338
1962.446, 4025.283
1964.375, 4023.511
1966.303, 4014.930
1968.232, 4019.762
1970.160, 4043.050
1972.089, 4047.159
1974.017, 4013.136
1975.946, 3985.453
1977.874, 3982.371
1979.802, 3985.294
1981.731, 3982.624
1983.659, 3979.338
